time (s)	coil I (A)	last det (V)	int current (uC)
5832.097234	1.051428	0.568343	448.959839
5832.098247	1.524283	0.568343	1993.058960
5832.099330	1.506138	0.568343	3624.206055
5832.100227	1.466038	0.568343	4939.241699
5832.101120	1.426926	0.568343	6213.486816
5832.102219	0.545592	0.568343	6813.092285
5832.103168	0.096006	0.568343	6904.201660
5832.104030	0.094852	0.568343	6985.964355
5832.105057	0.094900	0.568343	7083.426758
5832.106095	0.094860	0.568343	7181.891113
5832.106984	0.094874	0.568343	7266.234375
5832.107909	0.094863	0.568343	7353.982910
5832.108954	0.094882	0.568343	7453.134277
5832.109897	0.094896	0.568343	7542.621582
5832.110761	0.094849	0.568343	7624.570801
5832.111798	0.094929	0.568343	7723.012207
5833.052198	1.086064	0.526207	569.097778
5833.053144	1.529150	0.526207	2015.674072
5833.054068	1.511968	0.526207	3412.732422
5833.054932	1.473523	0.526207	4685.856445
5833.055945	1.430424	0.526207	6134.875488
5833.056854	0.845925	0.526207	6903.821289
5833.057726	0.107190	0.526207	6997.291016
5833.058638	0.094764	0.526207	7083.716309
5833.059631	0.094852	0.526207	7177.904785
5833.060548	0.094841	0.526207	7264.874023
5833.061426	0.094830	0.526207	7348.135254
5833.062437	0.094885	0.526207	7444.064453
5833.063353	0.094889	0.526207	7530.982910
5833.064273	0.094893	0.526207	7618.284180
5833.065136	0.094933	0.526207	7700.211426
5833.066178	0.094819	0.526207	7799.013184
5834.120174	1.057423	0.579163	489.586914
5834.121100	1.526554	0.579163	1903.175903
5834.121986	1.516223	0.579163	3246.549805
5834.122880	1.477610	0.579163	4567.533203
5834.123822	1.436096	0.579163	5920.335937
5834.124782	0.982350	0.579163	6863.391602
5834.125661	0.120579	0.579163	6969.380371
5834.126595	0.094709	0.579163	7057.838867
5834.127545	0.094801	0.579163	7147.899902
5834.128447	0.094823	0.579163	7233.430176
5834.129323	0.094794	0.579163	7316.469238
5834.130266	0.094808	0.579163	7405.873535
5834.131197	0.094790	0.579163	7494.123047
5834.132111	0.094874	0.579163	7580.837891
5834.132972	0.094819	0.579163	7662.477539
5834.133932	0.094801	0.579163	7753.486328
5835.084725	1.026914	0.603228	431.303894
5835.085777	1.527726	0.603228	2038.471436
5835.086679	1.512334	0.603228	3402.596680
5835.087559	1.473673	0.603228	4699.428711
5835.088484	1.434152	0.603228	6026.019043
5835.089482	0.854725	0.603228	6879.035156
5835.090409	0.104700	0.603228	6976.091797
5835.091284	0.094757	0.603228	7059.004395
5835.092280	0.094904	0.603228	7153.528320
5835.093179	0.094958	0.603228	7238.895996
5835.094083	0.094816	0.603228	7324.609375
5835.094951	0.094922	0.603228	7407.001465
5835.095980	0.094819	0.603228	7504.570312
5835.096872	0.094849	0.603228	7589.175293
5835.097790	0.094863	0.603228	7676.259766
5835.098654	0.094801	0.603228	7758.167969
5836.144092	1.056914	0.549390	475.611298
5836.144963	1.522819	0.549390	1801.986328
5836.145931	1.514960	0.549390	3268.467285
5836.146860	1.474369	0.549390	4638.156250
5836.147788	1.435199	0.549390	5970.020996
5836.148660	1.025002	0.549390	6863.823242
5836.149656	0.117524	0.549390	6980.877441
5836.150584	0.094735	0.549390	7068.791504
5836.151460	0.094849	0.549390	7151.878906
5836.152357	0.094805	0.549390	7236.918945
5836.153284	0.094823	0.549390	7324.819824
5836.154236	0.094761	0.549390	7415.032227
5836.155132	0.094845	0.549390	7500.013184
5836.156041	0.094856	0.549390	7586.237305
5836.156997	0.094856	0.549390	7676.919434
5836.157912	0.094863	0.549390	7763.719238
5837.124028	1.021989	0.580642	432.301147
5837.124980	1.519545	0.580642	1878.907715
5837.125964	1.512935	0.580642	3367.635254
5837.126884	1.472743	0.580642	4722.558594
5837.127766	1.434624	0.580642	5987.896973
5837.128775	0.862980	0.580642	6858.643555
5837.129690	0.104930	0.580642	6954.654785
5837.130569	0.094783	0.580642	7037.968750
5837.131428	0.094885	0.580642	7119.475098
5837.132487	0.094874	0.580642	7219.946777
5837.133360	0.094819	0.580642	7302.724121
5837.134230	0.094860	0.580642	7385.251953
5837.135229	0.094775	0.580642	7479.932617
5837.136147	0.094797	0.580642	7566.956543
5837.137053	0.094849	0.580642	7652.889648
5837.137931	0.094834	0.580642	7736.153809
5838.157244	1.023303	0.649812	433.880585
5838.158183	1.519753	0.649812	1860.928955
5838.159172	1.512730	0.649812	3357.018555
5838.160092	1.472941	0.649812	4712.124023
5838.160975	1.434683	0.649812	5978.948730
5838.162022	0.820316	0.649812	6837.819824
5838.162928	0.103037	0.649812	6931.171387
5838.163806	0.094849	0.649812	7014.448242
5838.164818	0.094896	0.649812	7110.483398
5838.165775	0.094907	0.649812	7201.309570
5838.166703	0.094827	0.649812	7289.308594
5838.167579	0.094878	0.649812	7372.421875
5838.168571	0.094871	0.649812	7466.533691
5838.169487	0.094849	0.649812	7553.415039
5838.170405	0.094882	0.649812	7640.516113
5838.171266	0.094882	0.649812	7722.208984
5839.162340	1.068918	0.654561	484.220062
5839.163229	1.523445	0.654561	1838.562622
5839.164139	1.516392	0.654561	3218.479004
5839.165016	1.477236	0.654561	4514.015137
5839.165998	1.436448	0.654561	5924.606934
5839.166930	1.021187	0.654561	6876.353027
5839.167808	0.125240	0.654561	6986.313965
5839.168834	0.094794	0.654561	7083.572266
5839.169724	0.094764	0.654561	7167.912598
5839.170642	0.094827	0.654561	7254.963379
5839.171503	0.094812	0.654561	7336.596680
5839.172498	0.094849	0.654561	7430.971191
5839.173424	0.094834	0.654561	7518.787598
5839.174297	0.094911	0.654561	7601.645020
5839.175189	0.094871	0.654561	7686.269531
5839.176144	0.094871	0.654561	7776.871094
5840.172024	1.088024	0.655407	522.251404
5840.172903	1.524646	0.655407	1862.415283
5840.173771	1.516974	0.655407	3179.148437
5840.174832	1.471981	0.655407	4740.920410
5840.175776	1.431332	0.655407	6092.097656
5840.176661	0.936149	0.655407	6920.589355
5840.177595	0.115785	0.655407	7028.732422
5840.178629	0.094779	0.655407	7126.733887
5840.179520	0.094882	0.655407	7211.273437
5840.180381	0.094926	0.655407	7293.004395
5840.181416	0.094900	0.655407	7391.225586
5840.182372	0.094801	0.655407	7481.855469
5840.183238	0.094896	0.655407	7564.035645
5840.184127	0.094922	0.655407	7648.421387
5840.185226	0.094940	0.655407	7752.760742
5840.186102	0.094801	0.655407	7835.806641
5841.202124	1.050773	0.648535	451.832245
5841.203007	1.522167	0.648535	1795.905518
5841.203869	1.517439	0.648535	3103.937988
5841.204989	1.471674	0.648535	4752.212402
5841.205907	1.431793	0.648535	6066.598633
5841.206794	0.951786	0.648535	6910.833008
5841.207787	0.111749	0.648535	7021.799805
5841.208782	0.094691	0.648535	7116.017578
5841.209677	0.094852	0.648535	7200.910156
5841.210537	0.094830	0.648535	7282.464355
5841.211623	0.094808	0.648535	7385.426270
5841.212519	0.094827	0.648535	7470.391113
5841.213383	0.094871	0.648535	7552.359375
5841.214370	0.094867	0.648535	7645.993164
5841.215376	0.094794	0.648535	7741.355469
5841.216255	0.094790	0.648535	7824.675781
5842.189752	1.023402	0.685052	433.922485
5842.190774	1.525499	0.685052	1992.982666
5842.191806	1.507474	0.685052	3548.696289
5842.192702	1.468590	0.685052	4864.552734
5842.193645	1.428018	0.685052	6211.173340
5842.194722	0.570022	0.685052	6825.086914
5842.195651	0.096456	0.685052	6914.694824
5842.196513	0.094849	0.685052	6996.454102
5842.197583	0.094896	0.685052	7097.993164
5842.198580	0.094867	0.685052	7192.575684
5842.199469	0.094893	0.685052	7276.935059
5842.200439	0.094929	0.685052	7369.016602
5842.201462	0.094907	0.685052	7466.106445
5842.202378	0.094871	0.685052	7553.007812
5842.203238	0.094852	0.685052	7634.580566
5842.204297	0.094838	0.685052	7735.013672
5843.233210	1.038124	0.730020	438.088257
5843.234305	1.528011	0.730020	2111.260742
5843.235302	1.505808	0.730020	3612.551270
5843.236187	1.467224	0.730020	4911.044922
5843.237194	1.424513	0.730020	6345.529297
5843.238267	0.481322	0.730020	6861.987793
5843.239138	0.095962	0.730020	6945.570801
5843.240020	0.094904	0.730020	7029.275879
5843.241113	0.094929	0.730020	7133.033691
5843.242069	0.094889	0.730020	7223.747559
5843.242940	0.094915	0.730020	7306.417969
5843.243952	0.094962	0.730020	7402.519531
5843.244988	0.094926	0.730020	7500.862305
5843.245879	0.094893	0.730020	7585.411621
5843.246805	0.094904	0.730020	7673.292480
5843.247866	0.094896	0.730020	7773.977539
5844.216252	1.031741	0.772059	437.458038
5844.217324	1.526741	0.772059	2074.124023
5844.218346	1.505577	0.772059	3612.824219
5844.219230	1.467107	0.772059	4909.746582
5844.220208	1.425850	0.772059	6304.227539
5844.221259	0.524971	0.772059	6855.971680
5844.222177	0.096266	0.772059	6944.343750
5844.223032	0.094918	0.772059	7025.499023
5844.224128	0.095035	0.772059	7129.657715
5844.225109	0.094929	0.772059	7222.783203
5844.225983	0.094852	0.772059	7305.684082
5844.226960	0.094991	0.772059	7398.490723
5844.228014	0.095017	0.772059	7498.638672
5844.228909	0.094878	0.772059	7583.554199
5844.229778	0.094874	0.772059	7666.000000
5844.230860	0.094973	0.772059	7768.760742
5845.262780	1.031038	0.740095	439.222015
5845.263827	1.527114	0.740095	2038.110718
5845.264851	1.506855	0.740095	3581.130859
5845.265751	1.467048	0.740095	4901.474609
5845.266712	1.426732	0.740095	6272.564453
5845.267780	0.531281	0.740095	6839.972168
5845.268716	0.095929	0.740095	6929.761719
5845.269581	0.094940	0.740095	7011.884766
5845.270662	0.094948	0.740095	7114.522949
5845.271652	0.094874	0.740095	7208.448242
5845.272531	0.094874	0.740095	7291.842773
5845.273511	0.094955	0.740095	7384.898437
5845.274555	0.094863	0.740095	7483.935547
5845.275459	0.094915	0.740095	7569.738281
5845.276316	0.094915	0.740095	7651.080078
5845.277404	0.095024	0.740095	7754.466797
5846.240230	1.079575	0.797651	491.206696
5846.241121	1.523225	0.797651	1848.400146
5846.241981	1.516860	0.797651	3152.899902
5846.242963	1.475995	0.797651	4602.327148
5846.243897	1.435071	0.797651	5942.683105
5846.244801	1.049542	0.797651	6891.469238
5846.245711	0.130770	0.797651	7010.470215
5846.246665	0.094819	0.797651	7100.927734
5846.247592	0.094926	0.797651	7188.923828
5846.248464	0.094926	0.797651	7271.698730
5846.249415	0.094874	0.797651	7361.924316
5846.250340	0.094885	0.797651	7449.693359
5846.251259	0.094896	0.797651	7536.902832
5846.252120	0.094827	0.797651	7618.548828
5846.253091	0.094849	0.797651	7710.646973
5846.254034	0.094856	0.797651	7800.096191
5847.292416	1.108931	0.750741	547.811768
5847.293345	1.526990	0.750741	1966.385254
5847.294268	1.513121	0.750741	3362.996094
5847.295134	1.474303	0.750741	4639.742676
5847.296084	1.433906	0.750741	6001.953613
5847.297046	0.918798	0.750741	6885.836914
5847.297933	0.111350	0.750741	6984.604492
5847.298854	0.094750	0.750741	7071.869141
5847.299786	0.094830	0.750741	7160.250977
5847.300714	0.094830	0.750741	7248.253418
5847.301603	0.094834	0.750741	7332.561035
5847.302530	0.094779	0.750741	7420.421387
5847.303480	0.094823	0.750741	7510.503418
5847.304402	0.094775	0.750741	7597.886230
5847.305266	0.094812	0.750741	7679.803711
5847.306203	0.094816	0.750741	7768.645996
5848.271337	1.050634	0.828975	494.848389
5848.272273	1.525360	0.828975	1922.585449
5848.273198	1.513367	0.828975	3322.449707
5848.274068	1.475354	0.828975	4606.007812
5848.275012	1.434642	0.828975	5960.310059
5848.275954	0.951453	0.828975	6856.578125
5848.276869	0.113199	0.828975	6960.155762
5848.277749	0.094801	0.828975	7043.580566
5848.278707	0.094922	0.828975	7134.515625
5848.279652	0.094867	0.828975	7224.165039
5848.280542	0.094856	0.828975	7308.586914
5848.281453	0.094801	0.828975	7394.950684
5848.282369	0.094808	0.828975	7481.794922
5848.283317	0.094823	0.828975	7571.687012
5848.284204	0.094808	0.828975	7655.782227
5848.285125	0.094823	0.828975	7743.114258
5849.317312	1.023625	0.801909	434.017212
5849.318253	1.523767	0.801909	1867.882080
5849.319198	1.514209	0.801909	3298.809570
5849.320106	1.474633	0.801909	4637.775879
5849.320988	1.435723	0.801909	5904.083008
5849.321971	0.961765	0.801909	6849.498047
5849.322917	0.112137	0.801909	6955.580078
5849.323813	0.094834	0.801909	7040.551270
5849.324718	0.094900	0.801909	7126.435547
5849.325677	0.094841	0.801909	7217.388184
5849.326602	0.094860	0.801909	7305.133301
5849.327466	0.094940	0.801909	7387.161621
5849.328440	0.094867	0.801909	7479.562012
5849.329370	0.094797	0.801909	7567.723633
5849.330282	0.094863	0.801909	7654.238770
5849.331150	0.094801	0.801909	7736.525879
5850.299849	1.041647	0.884313	449.991394
5850.300729	1.520962	0.884313	1788.437988
5850.301694	1.515469	0.884313	3250.865234
5850.302615	1.474790	0.884313	4609.146973
5850.303511	1.436576	0.884313	5896.318848
5850.304456	1.017726	0.884313	6858.069824
5850.305405	0.117330	0.884313	6969.416504
5850.306326	0.094812	0.884313	7056.738281
5850.307189	0.094874	0.884313	7138.614746
5850.308153	0.094904	0.884313	7230.101562
5850.309106	0.094790	0.884313	7320.436523
5850.309992	0.094852	0.884313	7404.475586
5850.310866	0.094841	0.884313	7487.366699
5850.311814	0.094841	0.884313	7577.276367
5850.312764	0.094845	0.884313	7667.378906
5850.313649	0.094922	0.884313	7751.384766
5851.343803	1.024856	0.810554	432.489227
5851.344729	1.520387	0.810554	1840.367554
5851.345686	1.514619	0.810554	3289.857910
5851.346600	1.474849	0.810554	4637.869629
5851.347472	1.436433	0.810554	5890.439453
5851.348449	0.977329	0.810554	6845.290039
5851.349403	0.114957	0.810554	6954.959473
5851.350278	0.094808	0.810554	7037.916992
5851.351178	0.094823	0.810554	7123.257812
5851.352128	0.094860	0.810554	7213.374512
5851.353048	0.094801	0.810554	7300.591309
5851.353924	0.094882	0.810554	7383.707520
5851.354866	0.094819	0.810554	7473.027344
5851.355784	0.094808	0.810554	7560.061523
5851.356705	0.094856	0.810554	7647.423828
5851.357567	0.094834	0.810554	7729.170898
5852.329957	1.075426	0.896780	497.922241
5852.330842	1.523635	0.896780	1846.339478
5852.331770	1.514923	0.896780	3252.187988
5852.332737	1.473622	0.896780	4677.180176
5852.333633	1.434862	0.896780	5962.816406
5852.334548	1.017938	0.896780	6894.229980
5852.335513	0.116506	0.896780	7006.658691
5852.336435	0.094834	0.896780	7094.095703
5852.337294	0.094834	0.896780	7175.558105
5852.338284	0.094889	0.896780	7269.498047
5852.339228	0.094830	0.896780	7359.018066
5852.340162	0.094893	0.896780	7447.647949
5852.341021	0.094841	0.896780	7529.116699
5852.341969	0.094904	0.896780	7619.085449
5852.342922	0.094878	0.896780	7709.503906
5852.343814	0.094955	0.896780	7794.203613
5853.371879	1.071746	0.838434	500.505219
5853.372804	1.525964	0.838434	1912.022217
5853.373686	1.515699	0.838434	3248.869141
5853.374595	1.476376	0.838434	4590.894531
5853.375547	1.435668	0.838434	5957.650391
5853.376476	1.008179	0.838434	6894.248535
5853.377341	0.125610	0.838434	7002.901367
5853.378271	0.094764	0.838434	7091.032227
5853.379199	0.094819	0.838434	7179.024414
5853.380128	0.094896	0.838434	7267.183105
5853.381007	0.094885	0.838434	7350.587402
5853.381972	0.094882	0.838434	7442.147949
5853.382918	0.094918	0.838434	7531.940430
5853.383807	0.094918	0.838434	7616.322754
5853.384700	0.094889	0.838434	7701.058594
5853.385633	0.094841	0.838434	7789.545410
5854.359032	1.068827	0.924193	509.830444
5854.359910	1.523837	0.924193	1847.759033
5854.360780	1.516622	0.924193	3167.220459
5854.361738	1.476094	0.924193	4581.318359
5854.362677	1.435159	0.924193	5928.932617
5854.363589	1.039490	0.924193	6876.947266
5854.364452	0.129701	0.924193	6988.879395
5854.365416	0.094779	0.924193	7080.246582
5854.366334	0.094929	0.924193	7167.391602
5854.367195	0.094827	0.924193	7249.037109
5854.368160	0.094863	0.924193	7340.580078
5854.369094	0.094871	0.924193	7429.189453
5854.369974	0.094885	0.924193	7512.688477
5854.370843	0.094874	0.924193	7595.134277
5854.371799	0.094808	0.924193	7685.770996
5854.372747	0.094918	0.924193	7775.753418
5855.397826	1.040658	0.889706	448.523590
5855.398691	1.519940	0.889706	1763.271851
5855.399794	1.510195	0.889706	3429.017090
5855.400772	1.467839	0.889706	4864.563965
5855.401645	1.430197	0.889706	6113.125488
5855.402731	0.639404	0.889706	6807.518555
5855.403765	0.096211	0.889706	6907.000488
5855.404662	0.094922	0.889706	6992.145508
5855.405597	0.094915	0.889706	7080.890625
5855.406642	0.094958	0.889706	7180.122070
5855.407582	0.094918	0.889706	7269.345215
5855.408445	0.094907	0.889706	7351.250000
5855.409491	0.094969	0.889706	7450.587891
5855.410505	0.094849	0.889706	7546.764648
5855.411387	0.094966	0.889706	7630.524414
5855.412355	0.094922	0.889706	7722.408691
5856.387517	1.027441	0.960613	436.662598
5856.388439	1.519852	0.960613	1837.966431
5856.389417	1.513575	0.960613	3318.243164
5856.390340	1.473219	0.960613	4678.024414
5856.391207	1.435532	0.960613	5922.630859
5856.392261	0.851624	0.960613	6820.242187
5856.393303	0.100693	0.960613	6925.164551
5856.394224	0.094816	0.960613	7012.489746
5856.395085	0.094863	0.960613	7094.166992
5856.396145	0.094962	0.960613	7194.826660
5856.397144	0.094845	0.960613	7289.576660
5856.398017	0.094845	0.960613	7372.376465
5856.398967	0.094889	0.960613	7462.520996
5856.400049	0.094849	0.960613	7565.147461
5856.400949	0.094955	0.960613	7650.606934
5856.401817	0.094893	0.960613	7732.973633
5857.426386	1.042907	0.892865	454.707245
5857.427252	1.520907	0.892865	1771.812744
5857.428195	1.515776	0.892865	3201.189941
5857.429159	1.474475	0.892865	4622.583984
5857.430091	1.434983	0.892865	5959.988281
5857.430960	1.038153	0.892865	6862.143555
5857.431903	0.123292	0.892865	6978.408203
5857.432861	0.094929	0.892865	7069.350586
5857.433744	0.094896	0.892865	7153.144043
5857.434660	0.094904	0.892865	7240.075684
5857.435598	0.094893	0.892865	7329.084961
5857.436521	0.094845	0.892865	7416.626953
5857.437406	0.094893	0.892865	7500.606934
5857.438346	0.094863	0.892865	7589.778320
5857.439300	0.094849	0.892865	7680.263672
5857.440222	0.094889	0.892865	7767.751465
5858.415594	1.067593	0.962450	499.633392
5858.416483	1.523719	0.962450	1854.219971
5858.417350	1.516282	0.962450	3168.836182
5858.418331	1.475120	0.962450	4615.928711
5858.419280	1.434496	0.962450	5977.265625
5858.420180	1.019451	0.962450	6894.771484
5858.421090	0.127185	0.962450	7010.509766
5858.422021	0.094918	0.962450	7098.878418
5858.422961	0.094991	0.962450	7188.170410
5858.423839	0.094966	0.962450	7271.550293
5858.424747	0.094948	0.962450	7357.762695
5858.425698	0.094958	0.962450	7448.068359
5858.426615	0.094948	0.962450	7535.135254
5858.427494	0.094856	0.962450	7618.513672
5858.428468	0.094966	0.962450	7711.010254
5858.429397	0.094893	0.962450	7799.165527
5859.453888	1.038823	0.957874	442.538696
5859.454852	1.524159	0.957874	1911.827881
5859.455781	1.513271	0.957874	3317.657227
5859.456671	1.474351	0.957874	4629.829102
5859.457587	1.435638	0.957874	5944.874023
5859.458553	0.973224	0.957874	6885.008301
5859.459480	0.111727	0.957874	6988.579590
5859.460360	0.094808	0.957874	7072.010742
5859.461310	0.094940	0.957874	7162.204102
5859.462255	0.094878	0.957874	7251.863770
5859.463191	0.094896	0.957874	7340.686523
5859.464051	0.094944	0.957874	7422.338379
5859.465019	0.094911	0.957874	7514.211914
5859.465927	0.094955	0.957874	7600.430664
5859.466807	0.094962	0.957874	7683.997559
5859.467730	0.094918	0.957874	7771.606934
5860.441597	1.096267	0.997230	525.111938
5860.442475	1.524393	0.997230	1863.529297
5860.443348	1.515399	0.997230	3186.472656
5860.444330	1.473552	0.997230	4633.500977
5860.445287	1.433273	0.997230	6005.143066
5860.446181	0.999569	0.997230	6898.757812
5860.447099	0.122428	0.997230	7011.146484
5860.448060	0.094893	0.997230	7102.338379
5860.448984	0.094973	0.997230	7190.093750
5860.449851	0.094944	0.997230	7272.410156
5860.450802	0.094962	0.997230	7362.719238
5860.451742	0.094958	0.997230	7451.980469
5860.452661	0.094966	0.997230	7539.253906
5860.453523	0.094988	0.997230	7621.133301
5860.454468	0.094948	0.997230	7710.858887
5860.455421	0.094878	0.997230	7801.277344
5861.482960	1.044873	0.992481	450.340271
5861.483901	1.520966	0.992481	1881.568848
5861.484814	1.514136	0.992481	3263.974609
5861.485740	1.474515	0.992481	4629.375977
5861.486618	1.436576	0.992481	5890.689453
5861.487552	1.020319	0.992481	6843.666992
5861.488502	0.116869	0.992481	6954.692383
5861.489433	0.094893	0.992481	7043.037598
5861.490294	0.094937	0.992481	7124.777832
5861.491257	0.094918	0.992481	7216.184082
5861.492215	0.094926	0.992481	7307.122559
5861.493106	0.094995	0.992481	7391.763184
5861.494029	0.094962	0.992481	7479.413086
5861.494951	0.094918	0.992481	7566.927734
5861.495848	0.094926	0.992481	7652.076172
5861.496725	0.094918	0.992481	7735.319336
5862.469567	1.024453	0.998648	435.392548
5862.470490	1.519277	0.998648	1837.685547
5862.471419	1.514557	0.998648	3244.708984
5862.472365	1.473523	0.998648	4638.661621
5862.473256	1.435649	0.998648	5917.825195
5862.474176	1.018839	0.998648	6855.157227
5862.475125	0.118641	0.998648	6967.748047
5862.476045	0.094768	0.998648	7054.934570
5862.476905	0.094852	0.998648	7136.507324
5862.477876	0.094918	0.998648	7228.672852
5862.478822	0.094937	0.998648	7318.482910
5862.479708	0.094918	0.998648	7402.580566
5862.480572	0.094871	0.998648	7484.548828
5862.481519	0.094900	0.998648	7574.418945
5862.482462	0.094885	0.998648	7663.895508
5862.483354	0.094904	0.998648	7748.549316
5863.510457	1.022585	1.052648	429.485870
5863.511386	1.519684	1.052648	1841.272095
5863.512453	1.508979	1.052648	3451.353027
5863.513402	1.467949	1.052648	4844.437012
5863.514273	1.430149	1.052648	6090.096680
5863.515331	0.695614	1.052648	6826.056152
5863.516351	0.096976	1.052648	6924.972168
5863.517236	0.094955	1.052648	7009.007324
5863.518182	0.094984	1.052648	7098.862305
5863.519228	0.094907	1.052648	7198.135254
5863.520151	0.094977	1.052648	7285.798828
5863.521017	0.094991	1.052648	7368.061523
5863.522068	0.095068	1.052648	7467.978516
5863.523075	0.094999	1.052648	7563.642090
5863.523947	0.095002	1.052648	7646.484375
5863.524901	0.094962	1.052648	7737.078125
5864.499135	1.028555	1.027233	439.192841
5864.500058	1.519552	1.027233	1841.739380
5864.501001	1.514619	1.027233	3270.025146
5864.501931	1.474406	1.027233	4641.222168
5864.502802	1.436506	1.027233	5892.418945
5864.503753	0.998361	1.027233	6841.859863
5864.504707	0.117891	1.027233	6954.327637
5864.505636	0.094845	1.027233	7042.438477
5864.506493	0.094907	1.027233	7123.773926
5864.507440	0.094948	1.027233	7213.689453
5864.508388	0.094933	1.027233	7303.686035
5864.509281	0.094937	1.027233	7388.464355
5864.510193	0.094977	1.027233	7475.083008
5864.511110	0.094874	1.027233	7562.082520
5864.512055	0.094926	1.027233	7651.787109
5864.512945	0.094904	1.027233	7736.251465
5865.539564	1.090774	1.079416	508.300659
5865.540454	1.524298	1.079416	1864.925903
5865.541438	1.512173	1.079416	3352.903809
5865.542485	1.466781	1.079416	4888.623535
5865.543406	1.426999	1.079416	6202.890137
5865.544276	0.814358	1.079416	6911.381348
5865.545376	0.098060	1.079416	7019.247559
5865.546357	0.094889	1.079416	7112.333496
5865.547249	0.094937	1.079416	7197.017090
5865.548221	0.094904	1.079416	7289.263184
5865.549268	0.094911	1.079416	7388.634766
5865.550173	0.094885	1.079416	7474.505859
5865.551034	0.094915	1.079416	7556.227051
5865.552132	0.094988	1.079416	7660.523437
5865.553095	0.094904	1.079416	7751.915527
5865.553954	0.094889	1.079416	7833.425293
5866.526678	1.055134	1.015970	466.369354
5866.527545	1.520581	1.015970	1784.713135
5866.528645	1.509298	1.015970	3444.940918
5866.529643	1.465785	1.015970	4907.794434
5866.530524	1.428065	1.015970	6165.919922
5866.531534	0.693648	1.015970	6866.503906
5866.532558	0.097310	1.015970	6966.148926
5866.533438	0.094926	1.015970	7049.683594
5866.534306	0.094926	1.015970	7132.079102
5866.535396	0.094900	1.015970	7235.520020
5866.536363	0.094962	1.015970	7327.348633
5866.537228	0.094937	1.015970	7409.468750
5866.538243	0.094980	1.015970	7505.874023
5866.539282	0.094948	1.015970	7604.524414
5866.540176	0.094955	1.015970	7689.414062
5866.541084	0.094885	1.015970	7775.569824
5867.567032	1.023263	1.086349	430.793701
5867.568008	1.522006	1.086349	1916.271118
5867.569066	1.508265	1.086349	3512.015869
5867.569968	1.467924	1.086349	4836.083008
5867.570835	1.429336	1.086349	6075.317383
5867.571924	0.669796	1.086349	6804.725586
5867.572886	0.097258	1.086349	6898.288086
5867.573750	0.094860	1.086349	6980.246582
5867.574821	0.094951	1.086349	7081.939453
5867.575851	0.094874	1.086349	7179.660156
5867.576731	0.094973	1.086349	7263.236328
5867.577638	0.094911	1.086349	7349.320312
5867.578709	0.095035	1.086349	7451.103027
5867.579653	0.094900	1.086349	7540.688477
5867.580510	0.094863	1.086349	7621.986328
5867.581526	0.094999	1.086349	7718.504883
5868.556732	1.024358	1.012220	434.327759
5868.557596	1.518867	1.012220	1746.629028
5868.558654	1.512242	1.012220	3346.581543
5868.559597	1.471333	1.012220	4734.048340
5868.560474	1.433375	1.012220	5991.118164
5868.561429	0.931472	1.012220	6880.673828
5868.562459	0.104875	1.012220	6988.695801
5868.563336	0.094863	1.012220	7071.891113
5868.564203	0.094929	1.012220	7154.194824
5868.565228	0.094991	1.012220	7251.561035
5868.566188	0.094860	1.012220	7342.626465
5868.567065	0.094907	1.012220	7425.859863
5868.567966	0.094926	1.012220	7511.387695
5868.569036	0.094878	1.012220	7612.907227
5868.569940	0.094926	1.012220	7698.719727
5868.570807	0.094937	1.012220	7781.029785
5869.593530	1.023226	1.027394	433.847992
5869.594534	1.522566	1.027394	1962.504150
5869.595596	1.507679	1.027394	3563.659668
5869.596467	1.468088	1.027394	4842.364746
5869.597340	1.430544	1.027394	6091.229980
5869.598367	0.725687	1.027394	6836.510742
5869.599346	0.097983	1.027394	6932.436523
5869.600217	0.094929	1.027394	7015.119629
5869.601078	0.094907	1.027394	7096.834961
5869.602178	0.094966	1.027394	7201.297363
5869.603090	0.094896	1.027394	7287.842773
5869.603956	0.094896	1.027394	7370.022949
5869.605046	0.094958	1.027394	7473.527832
5869.606012	0.094940	1.027394	7565.240234
5869.606939	0.094896	1.027394	7653.208984
5869.607802	0.094893	1.027394	7735.101074
5870.587381	1.057980	1.008361	511.004211
5870.588461	1.528425	1.008361	2161.703613
5870.589401	1.505768	1.008361	3577.125488
5870.590262	1.467752	1.008361	4840.859375
5870.591294	1.423400	1.008361	6309.807617
5870.592330	0.488815	1.008361	6816.219727
5870.593213	0.096365	1.008361	6901.309570
5870.594165	0.095054	1.008361	6991.800781
5870.595224	0.094966	1.008361	7092.369629
5870.596143	0.094893	1.008361	7179.575684
5870.597011	0.094871	1.008361	7261.923340
5870.598072	0.095072	1.008361	7362.794922
5870.599078	0.094882	1.008361	7458.245605
5870.599966	0.094918	1.008361	7542.533203
5870.600928	0.095021	1.008361	7633.943359
5870.601974	0.094922	1.008361	7733.231445
5871.614917	1.042050	0.976098	451.207458
5871.615794	1.521376	0.976098	1785.454102
5871.616739	1.515732	0.976098	3217.821289
5871.617689	1.474984	0.976098	4619.056152
5871.618621	1.435129	0.976098	5956.596680
5871.619495	1.063107	0.976098	6885.751953
5871.620442	0.124336	0.976098	7003.498047
5871.621401	0.094845	0.976098	7094.454590
5871.622290	0.094999	0.976098	7178.908691
5871.623169	0.094929	0.976098	7262.351562
5871.624113	0.094922	0.976098	7351.958008
5871.625063	0.094944	0.976098	7442.154785
5871.625953	0.094918	0.976098	7526.631836
5871.626858	0.094958	0.976098	7612.569336
5871.627815	0.094933	0.976098	7703.419922
5871.628742	0.094915	0.976098	7791.405762
5872.619516	1.106880	1.003531	532.409241
5872.620452	1.526404	1.003531	1961.123291
5872.621377	1.512433	1.003531	3360.123535
5872.622251	1.474197	1.003531	4648.571289
5872.623158	1.434734	1.003531	5949.875000
5872.624119	0.963669	1.003531	6875.961426
5872.625042	0.113013	1.003531	6980.271973
5872.625917	0.094790	1.003531	7063.213379
5872.626895	0.094849	1.003531	7155.975586
5872.627822	0.094856	1.003531	7243.907227
5872.628683	0.094951	1.003531	7325.660156
5872.629685	0.094867	1.003531	7420.716797
5872.630628	0.094907	1.003531	7510.214355
5872.631550	0.094819	1.003531	7597.637695
5872.632407	0.094889	1.003531	7678.957520
5872.633351	0.094904	1.003531	7768.546387
5873.629117	1.049799	0.980033	446.164398
5873.630105	1.526217	0.980033	1954.066772
5873.631035	1.511982	0.980033	3360.210449
5873.631925	1.473622	0.980033	4671.733887
5873.632835	1.434221	0.980033	5976.875000
5873.633814	0.923141	0.980033	6880.629883
5873.634738	0.109310	0.980033	6981.632812
5873.635602	0.094823	0.980033	7063.560059
5873.636566	0.094885	0.980033	7155.029297
5873.637510	0.094867	0.980033	7244.583496
5873.638395	0.094929	0.980033	7328.595703
5873.639259	0.094852	0.980033	7410.547852
5873.640221	0.094918	0.980033	7501.859375
5873.641161	0.094907	0.980033	7591.072266
5873.642050	0.094911	0.980033	7675.448242
5873.642959	0.094918	0.980033	7761.729004
5874.653143	1.061598	0.926670	481.965424
5874.654042	1.523782	0.926670	1851.845215
5874.654918	1.517131	0.926670	3180.852295
5874.655837	1.477657	0.926670	4538.819336
5874.656798	1.436180	0.926670	5918.988770
5874.657729	1.038314	0.926670	6885.659180
5874.658592	0.130631	0.926670	6998.394043
5874.659554	0.094937	0.926670	7089.723145
5874.660462	0.094893	0.926670	7175.885742
5874.661370	0.094958	0.926670	7262.107910
5874.662248	0.094958	0.926670	7345.481445
5874.663220	0.094878	0.926670	7437.702637
5874.664166	0.094944	0.926670	7527.519531
5874.665056	0.094969	0.926670	7612.042480
5874.665963	0.094929	0.926670	7698.143066
5874.666921	0.094849	0.926670	7789.007812
5875.644376	1.064033	1.069704	472.430725
5875.645255	1.521643	1.069704	1809.955078
5875.646169	1.515352	1.069704	3194.986328
5875.647121	1.474431	1.069704	4598.644531
5875.648057	1.434884	1.069704	5941.696289
5875.648940	1.042976	1.069704	6862.644043
5875.649915	0.119469	1.069704	6979.126465
5875.650859	0.094808	1.069704	7068.625488
5875.651755	0.094885	1.069704	7153.642578
5875.652624	0.094893	1.069704	7236.104004
5875.653586	0.094937	1.069704	7327.433105
5875.654526	0.094896	1.069704	7416.635742
5875.655406	0.094955	1.069704	7500.195801
5875.656335	0.094874	1.069704	7588.333984
5875.657272	0.094893	1.069704	7677.248535
5875.658192	0.094867	1.069704	7764.525879
5876.689368	1.055372	0.847079	474.917572
5876.690321	1.526477	0.847079	1929.650146
5876.691241	1.512957	0.847079	3321.570068
5876.692140	1.474362	0.847079	4647.020996
5876.693059	1.434401	0.847079	5965.235352
5876.694031	0.928531	0.847079	6867.768066
5876.694961	0.108494	0.847079	6968.666992
5876.695827	0.094786	0.847079	7050.751953
5876.696792	0.094958	0.847079	7142.386719
5876.697746	0.094969	0.847079	7232.987793
5876.698630	0.094966	0.847079	7316.937500
5876.699501	0.094885	0.847079	7399.582520
5876.700431	0.094988	0.847079	7487.921387
5876.701382	0.094980	0.847079	7578.248047
5876.702269	0.094856	0.847079	7662.385254
5876.703242	0.095013	0.847079	7754.833496
5877.664777	1.086731	1.144316	544.452209
5877.665662	1.525305	1.144316	1894.347168
5877.666529	1.513649	1.144316	3206.680664
5877.667654	1.467264	1.144316	4857.353027
5877.668621	1.425963	1.144316	6236.259277
5877.669496	0.788639	1.144316	6926.318359
5877.670545	0.099038	1.144316	7030.209473
5877.671579	0.094937	1.144316	7128.374023
5877.672470	0.095002	1.144316	7213.020996
5877.673406	0.095050	1.144316	7301.987793
5877.674449	0.095032	1.144316	7401.105957
5877.675379	0.095002	1.144316	7489.458008
5877.676254	0.094962	1.144316	7572.549805
5877.677198	0.094991	1.144316	7662.221680
5877.678236	0.094907	1.144316	7760.735352
5877.679120	0.095043	1.144316	7844.752930
5878.720955	1.023563	0.811235	429.896576
5878.721876	1.521127	0.811235	1830.854248
5878.722837	1.514714	0.811235	3286.494629
5878.723771	1.474036	0.811235	4663.244141
5878.724650	1.435913	0.811235	5925.411621
5878.725564	1.048817	0.811235	6884.030273
5878.726518	0.123153	0.811235	7001.518066
5878.727434	0.094841	0.811235	7088.392578
5878.728307	0.094860	0.811235	7171.205078
5878.729207	0.094896	0.811235	7256.611816
5878.730149	0.094841	0.811235	7345.952148
5878.731071	0.094951	0.811235	7433.497070
5878.731946	0.094841	0.811235	7516.483398
5878.732910	0.094904	0.811235	7607.970215
5878.733860	0.094896	0.811235	7698.121582
5878.734745	0.094926	0.811235	7782.130859
5879.690761	1.062887	1.167346	531.443481
5879.691716	1.527554	1.167346	1990.257202
5879.692637	1.510708	1.167346	3381.619141
5879.693513	1.472523	1.167346	4671.549316
5879.694534	1.429080	1.167346	6130.639648
5879.695448	0.815387	1.167346	6875.903320
5879.696373	0.102484	1.167346	6970.701172
5879.697234	0.094962	1.167346	7052.463379
5879.698281	0.094944	1.167346	7151.869629
5879.699168	0.094904	1.167346	7236.049316
5879.700043	0.094856	1.167346	7319.048340
5879.701035	0.094933	1.167346	7413.221680
5879.701952	0.094911	1.167346	7500.254883
5879.702866	0.094933	1.167346	7587.023437
5879.703725	0.094944	1.167346	7668.580078
5879.704736	0.094969	1.167346	7764.594238
5880.750106	1.113999	0.798284	563.683472
5880.751174	1.530231	0.798284	2197.969727
5880.752046	1.508035	0.798284	3512.976074
5880.752940	1.467155	0.798284	4824.612305
5880.754044	1.421506	0.798284	6393.955078
5880.755000	0.518456	0.798284	6889.598633
5880.755871	0.096892	0.798284	6973.991699
5880.756883	0.094915	0.798284	7070.045410
5880.757913	0.094900	0.798284	7167.792480
5880.758806	0.094878	0.798284	7252.518555
5880.759741	0.094926	0.798284	7341.273926
5880.760803	0.094955	0.798284	7442.115723
5880.761741	0.094885	0.798284	7531.118164
5880.762603	0.094937	0.798284	7612.953613
5880.763643	0.095054	0.798284	7711.809570
5880.764648	0.094926	0.798284	7807.209961
5881.719261	1.078176	1.163979	485.179321
5881.720200	1.525587	1.163979	1917.705688
5881.721083	1.514608	1.163979	3255.104736
5881.722015	1.474116	1.163979	4628.980957
5881.722968	1.433544	1.163979	5995.147949
5881.723903	0.966361	1.163979	6898.695312
5881.724760	0.119802	1.163979	7001.365723
5881.725707	0.094893	1.163979	7091.229004
5881.726648	0.094933	1.163979	7180.561035
5881.727549	0.094988	1.163979	7266.145020
5881.728412	0.094926	1.163979	7348.065918
5881.729376	0.094907	1.163979	7439.556641
5881.730321	0.094948	1.163979	7529.282227
5881.731211	0.094929	1.163979	7613.769043
5881.732122	0.094933	1.163979	7700.252930
5881.733084	0.094958	1.163979	7791.603027
5882.772413	1.036033	0.870890	440.313934
5882.773493	1.528026	0.870890	2090.582031
5882.774500	1.505746	0.870890	3606.868164
5882.775386	1.466744	0.870890	4906.403809
5882.776357	1.426044	0.870890	6291.092285
5882.777402	0.543999	0.870890	6859.571289
5882.778312	0.096526	0.870890	6947.409668
5882.779170	0.094966	0.870890	7028.890137
5882.780228	0.095087	0.870890	7129.491699
5882.781226	0.095002	0.870890	7224.304199
5882.782097	0.094977	0.870890	7307.028809
5882.783068	0.095050	0.870890	7399.322266
5882.784110	0.094991	0.870890	7498.303223
5882.785010	0.094962	0.870890	7583.769043
5882.785891	0.094977	0.870890	7667.443848
5882.786858	0.095043	0.870890	7759.350098
5883.751875	1.028383	1.133073	443.232880
5883.752835	1.519885	1.133073	1902.322754
5883.753880	1.508178	1.133073	3478.368164
5883.754812	1.467737	1.133073	4846.298828
5883.755672	1.429970	1.133073	6076.072754
5883.756703	0.730635	1.133073	6829.357422
5883.757712	0.097588	1.133073	6927.823730
5883.758602	0.094889	1.133073	7012.274902
5883.759550	0.095046	1.133073	7102.378906
5883.760597	0.094995	1.133073	7201.838867
5883.761522	0.094948	1.133073	7289.665527
5883.762392	0.095013	1.133073	7372.327148
5883.763466	0.095035	1.133073	7474.395020
5883.764453	0.094955	1.133073	7568.115234
5883.765344	0.094918	1.133073	7652.687500
5883.766323	0.095032	1.133073	7745.723633
5884.794349	1.091792	0.923182	508.775055
5884.795234	1.524485	0.923182	1857.944092
5884.796233	1.512477	0.923182	3368.908447
5884.797268	1.467283	0.923182	4887.545898
5884.798179	1.428051	0.923182	6188.500000
5884.799051	0.829570	0.923182	6911.885254
5884.800126	0.099375	0.923182	7018.713379
5884.801107	0.094900	0.923182	7111.810059
5884.801980	0.094863	0.923182	7194.625488
5884.802956	0.094962	0.923182	7287.308594
5884.804011	0.094926	0.923182	7387.455078
5884.804916	0.094933	0.923182	7473.369141
5884.805779	0.094977	0.923182	7555.333984
5884.806872	0.095090	0.923182	7659.267578
5884.807829	0.094969	0.923182	7750.153320
5884.808695	0.094951	0.923182	7832.380859
5885.785086	1.091748	1.082127	538.231750
5885.786035	1.526462	1.082127	1986.844482
5885.786961	1.511466	1.082127	3386.461914
5885.787826	1.473285	1.082127	4660.853516
5885.788785	1.432712	1.082127	6034.824707
5885.789725	0.903732	1.082127	6884.332520
5885.790633	0.108010	1.082127	6982.405762
5885.791496	0.094845	1.082127	7064.256836
5885.792469	0.094896	1.082127	7156.590820
5885.793408	0.094907	1.082127	7245.708496
5885.794295	0.094948	1.082127	7329.926758
5885.795207	0.094926	1.082127	7416.499023
5885.796167	0.094867	1.082127	7507.571289
5885.797087	0.094926	1.082127	7594.902832
5885.797948	0.094893	1.082127	7676.605469
5885.798861	0.094940	1.082127	7763.285645
5886.815699	1.052446	0.944077	463.076355
5886.816613	1.524467	0.944077	1856.438721
5886.817491	1.516326	0.944077	3187.772705
5886.818477	1.474790	0.944077	4641.915527
5886.819405	1.433976	0.944077	5972.645020
5886.820331	0.989824	0.944077	6889.222168
5886.821190	0.122355	0.944077	6994.324707
5886.822159	0.094849	0.944077	7086.232910
5886.823109	0.094973	0.944077	7176.457520
5886.823982	0.094977	0.944077	7259.372070
5886.824882	0.094973	0.944077	7344.847656
5886.825836	0.094896	0.944077	7435.378906
5886.826726	0.094940	0.944077	7519.875488
5886.827636	0.094940	0.944077	7606.270996
5886.828559	0.094871	0.944077	7693.836426
5886.829507	0.094860	0.944077	7783.763184
5887.820252	1.055046	0.999204	481.101166
5887.821205	1.526455	0.999204	1935.812988
5887.822141	1.512561	0.999204	3351.570312
5887.823017	1.474314	0.999204	4643.069336
5887.823945	1.434657	0.999204	5974.431152
5887.824911	0.938701	0.999204	6881.216797
5887.825815	0.111101	0.999204	6981.652344
5887.826691	0.094882	0.999204	7064.768555
5887.827635	0.094948	0.999204	7154.398926
5887.828565	0.094922	0.999204	7242.676270
5887.829486	0.094918	0.999204	7330.095703
5887.830349	0.094955	0.999204	7412.041504
5887.831325	0.094966	0.999204	7504.728027
5887.832266	0.094907	0.999204	7594.035645
5887.833151	0.094951	0.999204	7678.067383
5887.834069	0.094882	0.999204	7765.168457
5888.836642	1.108696	1.002362	587.609009
5888.837588	1.529004	1.002362	2034.046753
5888.838508	1.510166	1.002362	3423.399414
5888.839388	1.471432	1.002362	4718.259277
5888.840417	1.428138	1.002362	6187.813965
5888.841318	0.811190	1.002362	6918.696289
5888.842196	0.104626	1.002362	7010.558105
5888.843131	0.094955	1.002362	7099.340820
5888.844118	0.094900	1.002362	7193.006836
5888.845040	0.094944	1.002362	7280.544922
5888.845904	0.094933	1.002362	7362.566895
5888.846982	0.094973	1.002362	7464.947754
5888.847849	0.094856	1.002362	7547.187988
5888.848724	0.094962	1.002362	7630.279785
5888.849582	0.094907	1.002362	7711.709961
5888.850635	0.094874	1.002362	7811.612793
5889.853924	1.074386	0.944471	490.994415
5889.854807	1.523621	0.944471	1836.351318
5889.855671	1.515743	0.944471	3145.953613
5889.856777	1.470165	0.944471	4771.956055
5889.857687	1.430859	0.944471	6074.038086
5889.858572	0.944894	0.944471	6910.269043
5889.859567	0.111519	0.944471	7021.229980
5889.860559	0.094911	0.944471	7115.381348
5889.861450	0.094955	0.944471	7199.986328
5889.862311	0.094966	0.944471	7281.751953
5889.863406	0.095013	0.944471	7385.791504
5889.864332	0.094973	0.944471	7473.736816
5889.865207	0.094926	0.944471	7556.796875
5889.866205	0.094940	0.944471	7651.547363
5889.867204	0.094988	0.944471	7746.439941
5889.868086	0.094973	0.944471	7830.206055
5890.860057	1.110568	1.003474	565.278870
5890.860953	1.527001	1.003474	1933.471680
5890.861822	1.513169	1.003474	3248.415527
5890.862926	1.467382	1.003474	4868.404785
5890.863898	1.425879	1.003474	6254.358887
5890.864765	0.788196	1.003474	6937.724609
5890.865825	0.099148	1.003474	7042.821289
5890.866863	0.094988	1.003474	7141.418457
5890.867738	0.095006	1.003474	7224.548828
5890.868644	0.095054	1.003474	7310.667480
5890.869714	0.094896	1.003474	7412.206543
5890.870661	0.094885	1.003474	7502.062988
5890.871534	0.094966	1.003474	7584.968262
5890.872440	0.094988	1.003474	7671.027344
5890.873507	0.094915	1.003474	7772.301270
5890.874399	0.094918	1.003474	7856.968262
5891.886112	1.114003	0.921051	569.255371
5891.887080	1.530004	0.921051	2050.298828
5891.887960	1.511580	0.921051	3380.488770
5891.888979	1.467660	0.921051	4876.034180
5891.890027	1.423261	0.921051	6367.611328
5891.890921	0.637874	0.921051	6937.870117
5891.891815	0.099236	0.921051	7026.586914
5891.892889	0.095017	0.921051	7128.635254
5891.893838	0.094933	0.921051	7218.726562
5891.894695	0.094940	0.921051	7300.090332
5891.895712	0.094977	0.921051	7396.681641
5891.896758	0.094929	0.921051	7495.977539
5891.897644	0.094922	0.921051	7580.078125
5891.898562	0.094988	0.921051	7667.276855
5891.899634	0.095039	0.921051	7769.158691
5891.900583	0.094922	0.921051	7859.239746
5892.885579	1.155439	1.029384	655.134155
5892.886636	1.530048	1.029384	2272.394531
5892.887516	1.505504	1.029384	3597.238281
5892.888431	1.464690	1.029384	4937.429687
5892.889517	1.418961	1.029384	6478.421387
5892.890473	0.444093	1.029384	6902.974121
5892.891341	0.096134	1.029384	6986.418457
5892.892361	0.094969	1.029384	7083.287109
5892.893382	0.094937	1.029384	7180.217285
5892.894271	0.094878	1.029384	7264.563965
5892.895218	0.094991	1.029384	7354.520996
5892.896269	0.094841	1.029384	7454.199219
5892.897208	0.094918	1.029384	7543.327637
5892.898070	0.094896	1.029384	7625.128418
5892.899120	0.095050	1.029384	7724.931152
5893.914043	1.023208	0.933333	429.747375
5893.914906	1.519501	0.933333	1741.076416
5893.916010	1.510408	0.933333	3408.566406
5893.916977	1.468623	0.933333	4828.724609
5893.917840	1.431262	0.933333	6063.903809
5893.918879	0.763209	0.933333	6856.877930
5893.919905	0.098437	0.933333	6957.875000
5893.920794	0.094893	0.933333	7042.234375
5893.921707	0.094988	0.933333	7128.958008
5893.922781	0.094937	0.933333	7230.919922
5893.923715	0.094933	0.933333	7319.587402
5893.924575	0.094940	0.933333	7401.235840
5893.925603	0.094988	0.933333	7498.883301
5893.926630	0.095002	0.933333	7596.450684
5893.927522	0.094962	0.933333	7681.156738
5893.928473	0.094944	0.933333	7771.448242
5894.912052	1.142754	1.048132	614.801636
5894.913109	1.530172	1.048132	2232.193604
5894.914008	1.505738	1.048132	3585.852539
5894.914946	1.464511	1.048132	4959.563477
5894.916009	1.419159	1.048132	6468.129395
5894.916967	0.439581	1.048132	6889.248047
5894.917830	0.096262	1.048132	6972.322266
5894.918889	0.095101	1.048132	7073.034668
5894.919895	0.094907	1.048132	7168.511230
5894.920786	0.094911	1.048132	7253.076660
5894.921740	0.094948	1.048132	7343.656738
5894.922779	0.094772	1.048132	7442.124512
5894.923701	0.094885	1.048132	7529.608887
5894.924561	0.094980	1.048132	7611.291992
5894.925615	0.094937	1.048132	7711.354980
5895.941050	1.026259	0.935665	434.107391
5895.942081	1.526433	0.935665	2007.859985
5895.943117	1.506383	0.935665	3568.472656
5895.944019	1.466554	0.935665	4891.304199
5895.944990	1.426271	0.935665	6276.212891
5895.946051	0.526187	0.935665	6834.496582
5895.946989	0.095933	0.935665	6924.481445
5895.947850	0.095013	0.935665	7006.288086
5895.948926	0.095057	0.935665	7108.569824
5895.949912	0.094929	0.935665	7202.169922
5895.950791	0.094984	0.935665	7285.661133
5895.951777	0.094988	0.935665	7379.319336
5895.952823	0.094962	0.935665	7478.649902
5895.953719	0.094977	0.935665	7563.749023
5895.954576	0.095013	0.935665	7645.175293
5895.955658	0.095035	0.935665	7748.003418
5896.938948	1.027138	1.056720	442.696259
5896.939813	1.519911	1.056720	1757.419189
5896.940761	1.515703	1.056720	3194.305664
5896.941712	1.474611	1.056720	4596.660156
5896.942643	1.435228	1.056720	5932.857422
5896.943508	1.069142	1.056720	6857.665039
5896.944477	0.127570	1.056720	6981.279785
5896.945408	0.094816	1.056720	7069.553223
5896.946300	0.094937	1.056720	7154.236816
5896.947215	0.094841	1.056720	7241.016602
5896.948154	0.094823	1.056720	7330.055176
5896.949076	0.094893	1.056720	7417.545898
5896.949966	0.094926	1.056720	7502.029785
5896.950879	0.094819	1.056720	7588.599609
5896.951840	0.094816	1.056720	7679.717285
5896.952757	0.094863	1.056720	7766.707031
5897.967092	1.067443	0.924181	514.507324
5897.968028	1.527231	0.924181	1943.995850
5897.968961	1.512557	0.924181	3355.211914
5897.969830	1.474025	0.924181	4636.139160
5897.970795	1.433503	0.924181	6019.469727
5897.971742	0.920684	0.924181	6891.356934
5897.972635	0.110892	0.924181	6990.383789
5897.973507	0.094860	0.924181	7073.101562
5897.974448	0.094922	0.924181	7162.422852
5897.975394	0.094973	0.924181	7252.267578
5897.976288	0.094926	0.924181	7337.130859
5897.977193	0.094907	0.924181	7423.021973
5897.978157	0.094882	0.924181	7514.487793
5897.979065	0.094878	0.924181	7600.636719
5897.979935	0.094973	0.924181	7683.263184
5897.980924	0.094940	0.924181	7777.159180
5898.967524	1.052164	1.027282	474.526093
5898.968450	1.524401	1.027282	1886.121094
5898.969317	1.516168	1.027282	3200.638916
5898.970249	1.475186	1.027282	4575.511719
5898.971200	1.434053	1.027282	5939.295898
5898.972134	1.001312	1.027282	6874.521484
5898.973002	0.122578	1.027282	6980.919434
5898.973981	0.094856	1.027282	7073.783203
5898.974930	0.094838	1.027282	7163.784180
5898.975821	0.094937	1.027282	7248.372559
5898.976731	0.094882	1.027282	7334.714844
5898.977645	0.094852	1.027282	7421.409668
5898.978591	0.094816	1.027282	7511.105469
5898.979468	0.094904	1.027282	7594.335937
5898.980377	0.094911	1.027282	7680.609863
5898.981327	0.094856	1.027282	7770.723145
5899.990994	1.043745	0.930864	457.160339
5899.991871	1.522731	0.930864	1792.595215
5899.992788	1.517549	0.930864	3184.187500
5899.993733	1.476434	0.930864	4579.417969
5899.994655	1.436158	0.930864	5903.556152
5899.995536	1.103423	0.930864	6875.671875
5899.996472	0.132513	0.930864	6999.704590
5899.997404	0.094860	0.930864	7088.113770
5899.998317	0.094988	0.930864	7174.837402
5899.999188	0.094962	0.930864	7257.549316
5900.000144	0.094984	0.930864	7348.354004
5900.001089	0.094951	0.930864	7438.083008
5900.001973	0.094907	0.930864	7521.980957
5900.002848	0.094915	0.930864	7605.031250
5900.003794	0.094926	0.930864	7694.831055
5900.004739	0.094882	0.930864	7784.494141
5900.996606	1.116281	0.991317	550.326294
5900.997562	1.527404	0.991317	2010.524170
5900.998494	1.511005	0.991317	3418.780273
5900.999366	1.471853	0.991317	4702.236328
5901.000344	1.431024	0.991317	6101.777832
5901.001283	0.847408	0.991317	6897.494141
5901.002178	0.105432	0.991317	6991.855957
5901.003088	0.094830	0.991317	7078.151367
5901.004024	0.094827	0.991317	7166.909180
5901.004955	0.094882	0.991317	7255.244141
5901.005845	0.094904	0.991317	7339.708496
5901.006757	0.094867	0.991317	7426.227051
5901.007720	0.094907	0.991317	7517.622559
5901.008648	0.094874	0.991317	7605.666016
5901.009510	0.094867	0.991317	7687.441406
5901.010478	0.094896	0.991317	7779.300781
5902.014918	1.042936	0.902444	454.719971
5902.015802	1.522504	0.902444	1800.613159
5902.016715	1.516963	0.902444	3185.600098
5902.017674	1.475651	0.902444	4600.749023
5902.018602	1.435825	0.902444	5933.194824
5902.019471	1.093455	0.902444	6883.406738
5902.020420	0.130155	0.902444	7006.923828
5902.021331	0.094871	0.902444	7093.351074
5902.022247	0.094944	0.902444	7180.319824
5902.023122	0.094867	0.902444	7263.328613
5902.024090	0.094966	0.902444	7355.255371
5902.025037	0.094937	0.902444	7445.160156
5902.025929	0.094907	0.902444	7529.817383
5902.026838	0.094958	0.902444	7616.134766
5902.027777	0.094937	0.902444	7705.280273
5902.028680	0.094944	0.902444	7791.014648
5903.028202	1.083783	0.928664	508.294189
5903.029075	1.524086	0.928664	1838.820923
5903.029993	1.515124	0.928664	3229.705078
5903.030955	1.473922	0.928664	4647.618164
5903.031855	1.435389	0.928664	5939.468750
5903.032780	1.022215	0.928664	6885.018066
5903.033733	0.115313	0.928664	6994.910645
5903.034652	0.094783	0.928664	7082.016113
5903.035533	0.094962	0.928664	7165.677734
5903.036460	0.094863	0.928664	7253.616211
5903.037412	0.094915	0.928664	7343.975098
5903.038332	0.094988	0.928664	7431.363770
5903.039190	0.094962	0.928664	7512.841309
5903.040137	0.094944	0.928664	7602.752930
5903.041082	0.094929	0.928664	7692.460937
5903.041975	0.094926	0.928664	7777.229492
5904.036357	1.124777	0.924036	557.889221
5904.037308	1.527682	0.924036	2010.714844
5904.038229	1.511657	0.924036	3402.950684
5904.039093	1.473201	0.924036	4675.795898
5904.040049	1.432104	0.924036	6044.887695
5904.041012	0.877731	0.924036	6890.142578
5904.041900	0.107761	0.924036	6985.834473
5904.042813	0.094834	0.924036	7072.417969
5904.043737	0.094882	0.924036	7160.088379
5904.044678	0.094889	0.924036	7249.378906
5904.045571	0.094904	0.924036	7334.127930
5904.046486	0.094904	0.924036	7420.964844
5904.047434	0.094852	0.924036	7510.884766
5904.048324	0.094911	0.924036	7595.355469
5904.049251	0.094937	0.924036	7683.361816
5904.050202	0.094900	0.924036	7773.611816
5905.061832	1.048978	0.870044	457.354492
5905.062707	1.521878	0.870044	1788.997314
5905.063616	1.517285	0.870044	3168.209473
5905.064576	1.476123	0.870044	4585.287598
5905.065512	1.435902	0.870044	5929.291992
5905.066385	1.076957	0.870044	6869.475098
5905.067361	0.126636	0.870044	6993.071777
5905.068300	0.094860	0.870044	7082.145020
5905.069183	0.094955	0.870044	7165.990234
5905.070059	0.094940	0.870044	7249.157715
5905.071160	0.094929	0.870044	7353.674805
5905.072181	0.094944	0.870044	7450.612305
5905.073068	0.094969	0.870044	7534.850098
5905.073992	0.094995	0.870044	7622.625488
5905.075067	0.095039	0.870044	7724.792480
5905.076000	0.094937	0.870044	7813.368164
5906.057227	1.117518	0.968045	549.819031
5906.058157	1.527257	0.968045	1970.168213
5906.059035	1.513997	0.968045	3299.457275
5906.059956	1.473984	0.968045	4656.997070
5906.060892	1.433328	0.968045	5998.591797
5906.061830	0.951691	0.968045	6891.277832
5906.062705	0.115803	0.968045	6992.605469
5906.063665	0.094863	0.968045	7083.674316
5906.064601	0.094951	0.968045	7172.548828
5906.065508	0.094922	0.968045	7258.643066
5906.066371	0.094889	0.968045	7340.532227
5906.067344	0.094878	0.968045	7432.848633
5906.068297	0.094893	0.968045	7523.281250
5906.069183	0.094926	0.968045	7607.385254
5906.070108	0.094988	0.968045	7695.249023
5906.071037	0.094926	0.968045	7783.435059
5907.094002	1.093066	0.846466	511.555054
5907.094897	1.525789	0.846466	1877.135742
5907.095778	1.516432	0.846466	3213.112305
5907.096699	1.476368	0.846466	4572.847656
5907.097673	1.434470	0.846466	5970.021484
5907.098608	0.982976	0.846466	6889.104004
5907.099473	0.120319	0.846466	6993.179687
5907.100451	0.094889	0.846466	7085.980957
5907.101374	0.094929	0.846466	7173.600586
5907.102237	0.094907	0.846466	7255.505371
5907.103202	0.094823	0.846466	7347.009766
5907.104134	0.094878	0.846466	7435.436035
5907.105045	0.094856	0.846466	7521.849609
5907.105927	0.094838	0.846466	7605.496582
5907.106878	0.094849	0.846466	7695.697754
5907.107818	0.094922	0.846466	7784.924316
5908.079616	1.100380	1.015990	529.282654
5908.080532	1.526521	1.015990	1927.575928
5908.081425	1.513865	1.015990	3279.457031
5908.082350	1.474160	1.015990	4643.055176
5908.083308	1.432980	1.015990	6015.849609
5908.084238	0.944246	1.015990	6893.998047
5908.085105	0.115994	1.015990	6994.564453
5908.086069	0.094830	1.015990	7085.980957
5908.086995	0.094860	1.015990	7173.820801
5908.087922	0.094838	1.015990	7261.735352
5908.088784	0.094867	1.015990	7343.510742
5908.089724	0.094838	1.015990	7432.658203
5908.090670	0.094885	1.015990	7522.419434
5908.091562	0.094874	1.015990	7607.047363
5908.092470	0.094904	1.015990	7693.219727
5908.093416	0.094871	1.015990	7782.967285
5909.124543	1.033400	0.811340	440.228271
5909.125457	1.521182	0.811340	1830.588257
5909.126422	1.514722	0.811340	3292.294678
5909.127338	1.474175	0.811340	4642.638672
5909.128216	1.436686	0.811340	5904.048828
5909.129158	1.014675	0.811340	6859.873047
5909.130113	0.119648	0.811340	6974.137207
5909.131038	0.094856	0.811340	7061.878906
5909.131895	0.094929	0.811340	7143.233398
5909.132842	0.094940	0.811340	7233.141602
5909.133796	0.094973	0.811340	7323.746094
5909.134685	0.094966	0.811340	7408.170898
5909.135545	0.094915	0.811340	7489.797363
5909.136524	0.094944	0.811340	7582.747559
5909.137453	0.094966	0.811340	7670.970703
5909.138316	0.094915	0.811340	7752.881836
5910.104506	1.040530	1.057929	442.225128
5910.105476	1.525506	1.057929	1921.966431
5910.106416	1.512587	1.057929	3343.797852
5910.107301	1.474050	1.057929	4648.332520
5910.108243	1.434543	1.057929	5999.672363
5910.109182	0.957664	1.057929	6898.918457
5910.110100	0.110966	1.057929	7000.784668
5910.110979	0.094816	1.057929	7084.127441
5910.111911	0.094955	1.057929	7172.625488
5910.112854	0.094885	1.057929	7262.102051
5910.113779	0.094951	1.057929	7349.931641
5910.114635	0.094896	1.057929	7431.162598
5910.115585	0.094915	1.057929	7521.331543
5910.116526	0.094885	1.057929	7610.618652
5910.117427	0.094980	1.057929	7696.196289
5910.118289	0.094904	1.057929	7778.002930
5911.150610	1.111846	0.831312	558.146484
5911.151618	1.530494	0.831312	2100.884766
5911.152511	1.509884	0.831312	3449.211182
5911.153383	1.470868	0.831312	4731.808105
5911.154470	1.425568	0.831312	6281.400391
5911.155412	0.657935	0.831312	6901.174805
5911.156294	0.099141	0.831312	6988.616699
5911.157254	0.094966	0.831312	7079.783691
5911.158256	0.094907	0.831312	7174.880859
5911.159140	0.094988	0.831312	7258.850098
5911.160001	0.094918	0.831312	7340.574707
5911.161047	0.094977	0.831312	7439.920410
5911.161983	0.094926	0.831312	7528.770508
5911.162846	0.094889	0.831312	7610.659668
5911.163769	0.094991	0.831312	7698.336914
5911.164829	0.094918	0.831312	7798.950195
5912.130077	1.098157	1.106494	573.237793
5912.131136	1.529220	1.106494	2192.681641
5912.132067	1.505116	1.106494	3593.944580
5912.132933	1.465686	1.106494	4863.228516
5912.134011	1.421027	1.106494	6395.095215
5912.135017	0.439852	1.106494	6837.586426
5912.135900	0.096013	1.106494	6922.366211
5912.136886	0.094955	1.106494	7015.991699
5912.137920	0.094937	1.106494	7114.156250
5912.138814	0.094900	1.106494	7198.996582
5912.139671	0.094827	1.106494	7280.263184
5912.140764	0.094973	1.106494	7384.068848
5912.141721	0.094896	1.106494	7474.884766
5912.142595	0.094849	1.106494	7557.782227
5912.143594	0.094951	1.106494	7652.638672
5912.144654	0.094977	1.106494	7753.313965
5913.176005	1.036003	0.777296	446.517456
5913.176869	1.521152	0.777296	1760.793091
5913.177923	1.513510	0.777296	3356.032227
5913.178807	1.474149	0.777296	4659.180176
5913.179675	1.436455	0.777296	5906.022949
5913.180575	1.021242	0.777296	6825.140137
5913.181609	0.110219	0.777296	6939.105957
5913.182504	0.094797	0.777296	7023.949707
5913.183377	0.094977	0.777296	7106.864258
5913.184364	0.094904	0.777296	7200.534180
5913.185293	0.094882	0.777296	7288.679199
5913.186209	0.094937	0.777296	7375.641113
5913.187075	0.094969	0.777296	7457.884766
5913.188115	0.094922	0.777296	7556.603516
5913.188990	0.094900	0.777296	7639.641113
5913.189854	0.094889	0.777296	7721.625000
5914.159600	1.050579	1.067299	488.519043
5914.160487	1.523507	1.067299	1839.869873
5914.161376	1.515703	1.067299	3187.330078
5914.162336	1.473644	1.067299	4602.028320
5914.163294	1.433079	1.067299	5974.917969
5914.164196	1.002755	1.067299	6879.403320
5914.165107	0.120267	1.067299	6988.966797
5914.166072	0.094885	1.067299	7080.531250
5914.166996	0.094937	1.067299	7168.252441
5914.167858	0.094951	1.067299	7250.100586
5914.168823	0.094937	1.067299	7341.714355
5914.169780	0.094904	1.067299	7432.537109
5914.170668	0.094940	1.067299	7516.843750
5914.171548	0.094966	1.067299	7600.413574
5914.172481	0.094937	1.067299	7688.989258
5914.173431	0.094937	1.067299	7779.178711
5915.200967	1.039332	0.746471	445.873535
5915.201902	1.523723	0.746471	1870.554687
5915.202857	1.513835	0.746471	3316.267578
5915.203775	1.473874	0.746471	4669.284180
5915.204642	1.435968	0.746471	5914.268555
5915.205595	0.981196	0.746471	6849.348633
5915.206565	0.112727	0.746471	6958.693848
5915.207455	0.094812	0.746471	7043.076660
5915.208344	0.094893	0.746471	7127.436035
5915.209289	0.094926	0.746471	7217.140625
5915.210222	0.094918	0.746471	7305.699219
5915.211083	0.094874	0.746471	7387.385742
5915.212052	0.094893	0.746471	7479.336426
5915.212997	0.094904	0.746471	7569.020508
5915.213884	0.094940	0.746471	7653.232422
5915.214808	0.094958	0.746471	7740.974121
5916.189168	1.090583	1.031052	515.845947
5916.190057	1.524994	1.031052	1871.565552
5916.190928	1.515857	1.031052	3191.876953
5916.191903	1.474493	1.031052	4629.507812
5916.192856	1.433745	1.031052	5995.866699
5916.193754	1.010863	1.031052	6903.621582
5916.194667	0.124937	1.031052	7017.688477
5916.195609	0.094852	1.031052	7107.039551
5916.196534	0.094951	1.031052	7194.869141
5916.197415	0.094991	1.031052	7278.556641
5916.198318	0.094937	1.031052	7364.284180
5916.199267	0.094955	1.031052	7454.396484
5916.200193	0.094969	1.031052	7542.338379
5916.201074	0.094962	1.031052	7626.000000
5916.202046	0.094926	1.031052	7718.267578
5916.202965	0.094944	1.031052	7805.520996
5917.222873	1.069684	0.722507	476.009277
5917.223752	1.523577	0.722507	1815.233154
5917.224696	1.515480	0.722507	3245.845947
5917.225651	1.474211	0.722507	4653.717773
5917.226585	1.434225	0.722507	5993.283691
5917.227454	1.033769	0.722507	6891.629395
5917.228400	0.120718	0.722507	7005.828613
5917.229358	0.094779	0.722507	7096.626953
5917.230248	0.094860	0.722507	7181.052246
5917.231123	0.094852	0.722507	7264.047852
5917.232074	0.094860	0.722507	7354.259277
5917.233016	0.094904	0.722507	7443.658203
5917.233902	0.094889	0.722507	7527.729980
5917.234822	0.094948	0.722507	7615.081543
5917.235778	0.094944	0.722507	7705.847656
5917.236665	0.094874	0.722507	7790.000977
5918.219231	1.059159	0.968625	476.621521
5918.220107	1.523342	0.968625	1811.069336
5918.221027	1.516212	0.968625	3205.984375
5918.221990	1.474757	0.968625	4626.175293
5918.222924	1.434393	0.968625	5965.898437
5918.223812	1.045203	0.968625	6894.038086
5918.224746	0.116473	0.968625	7002.824219
5918.225713	0.094896	0.968625	7094.588867
5918.226642	0.094944	0.968625	7182.791504
5918.227503	0.094962	0.968625	7264.553711
5918.228467	0.094988	0.968625	7356.122070
5918.229414	0.094885	0.968625	7445.978516
5918.230281	0.094962	0.968625	7528.310547
5918.231157	0.094929	0.968625	7611.468750
5918.232120	0.094958	0.968625	7702.913574
5918.233079	0.094933	0.968625	7793.954102
5919.244769	1.080275	0.736227	482.882782
5919.245696	1.526045	0.736227	1897.526489
5919.246579	1.516128	0.736227	3236.267578
5919.247551	1.474197	0.736227	4669.187012
5919.248497	1.433412	0.736227	6025.194336
5919.249435	0.938306	0.736227	6905.325195
5919.250293	0.115302	0.736227	7004.253906
5919.251243	0.094797	0.736227	7094.311523
5919.252176	0.094904	0.736227	7182.856445
5919.253065	0.094955	0.736227	7267.271484
5919.253954	0.094900	0.736227	7351.637695
5919.254898	0.094929	0.736227	7441.250977
5919.255849	0.094834	0.736227	7531.437988
5919.256736	0.094944	0.736227	7615.653320
5919.257667	0.094907	0.736227	7704.011719
5919.258623	0.094915	0.736227	7794.750000
5920.251852	1.056504	0.885553	465.918213
5920.252733	1.522749	0.885553	1807.460083
5920.253594	1.517150	0.885553	3113.726074
5920.254615	1.474878	0.885553	4619.576172
5920.255552	1.434745	0.885553	5963.932129
5920.256441	1.051502	0.885553	6898.716797
5920.257371	0.130756	0.885553	7020.319336
5920.258326	0.094871	0.885553	7110.920898
5920.259230	0.094944	0.885553	7196.750000
5920.260106	0.094937	0.885553	7279.914551
5920.261039	0.094889	0.885553	7368.445801
5920.261978	0.094955	0.885553	7457.608398
5920.262902	0.094944	0.885553	7545.336426
5920.263761	0.094907	0.885553	7626.861816
5920.264732	0.094926	0.885553	7719.034668
5920.265679	0.094878	0.885553	7808.884277
5921.266635	1.046990	0.772970	449.158569
5921.267527	1.521551	0.772970	1806.382446
5921.268493	1.514590	0.772970	3269.476074
5921.269441	1.473721	0.772970	4666.563477
5921.270323	1.435664	0.772970	5932.819336
5921.271240	0.996383	0.772970	6846.502930
5921.272192	0.116671	0.772970	6957.573730
5921.273124	0.094871	0.772970	7045.993164
5921.274002	0.094937	0.772970	7129.347656
5921.274964	0.094933	0.772970	7220.672852
5921.275901	0.094948	0.772970	7309.638672
5921.276797	0.094944	0.772970	7394.708496
5921.277662	0.094962	0.772970	7476.850586
5921.278644	0.094933	0.772970	7570.074707
5921.279572	0.094966	0.772970	7658.203125
5921.280437	0.094958	0.772970	7740.342285
5922.284522	1.089525	0.797470	499.002502
5922.285453	1.526700	0.797470	1920.360596
5922.286336	1.515465	0.797470	3258.516357
5922.287304	1.473494	0.797470	4684.858398
5922.288252	1.432841	0.797470	6043.191406
5922.289166	0.934131	0.797470	6896.986816
5922.290046	0.114148	0.797470	6997.437012
5922.290990	0.094948	0.797470	7087.067383
5922.291941	0.094922	0.797470	7177.337891
5922.292838	0.094907	0.797470	7262.469727
5922.293727	0.094915	0.797470	7346.848633
5922.294660	0.094944	0.797470	7435.431152
5922.295604	0.094896	0.797470	7525.013184
5922.296487	0.094940	0.797470	7608.845215
5922.297411	0.094951	0.797470	7696.580078
5922.298367	0.094933	0.797470	7787.335937
5923.289028	1.037289	0.821684	443.959595
5923.289895	1.520867	0.821684	1762.551025
5923.290892	1.514722	0.821684	3272.728516
5923.291810	1.474827	0.821684	4626.619141
5923.292694	1.436580	0.821684	5896.555664
5923.293616	1.068882	0.821684	6882.064941
5923.294563	0.122816	0.821684	6998.372070
5923.295491	0.094808	0.821684	7086.354004
5923.296364	0.094955	0.821684	7169.249512
5923.297294	0.094845	0.821684	7257.455566
5923.298243	0.094940	0.821684	7347.553711
5923.299154	0.094958	0.821684	7434.061035
5923.300031	0.094926	0.821684	7517.310547
5923.300980	0.094958	0.821684	7607.426270
5923.301928	0.094867	0.821684	7697.360352
5923.302818	0.094933	0.821684	7781.850586
5924.315589	1.036491	0.790634	446.727417
5924.316603	1.525089	0.790634	1993.167847
5924.317521	1.511638	0.790634	3380.851562
5924.318450	1.471527	0.790634	4747.900391
5924.319317	1.432837	0.790634	5990.169922
5924.320374	0.803558	0.790634	6839.531250
5924.321254	0.103341	0.790634	6930.471191
5924.322126	0.094819	0.790634	7013.153809
5924.323090	0.094896	0.790634	7104.633789
5924.324031	0.094856	0.790634	7193.893066
5924.324950	0.094834	0.790634	7281.045410
5924.325823	0.094827	0.790634	7363.829102
5924.326860	0.094849	0.790634	7462.187012
5924.327756	0.094863	0.790634	7547.184570
5924.328669	0.094871	0.790634	7633.801270
5924.329531	0.094889	0.790634	7715.595703
5925.313538	1.099076	0.873771	528.655518
5925.314422	1.525107	0.873771	1876.850464
5925.315301	1.516249	0.873771	3209.633057
5925.316298	1.474102	0.873771	4679.312500
5925.317262	1.431903	0.873771	6059.666992
5925.318167	0.917281	0.873771	6889.806641
5925.319050	0.112339	0.873771	6989.001953
5925.320068	0.094805	0.873771	7085.513184
5925.320962	0.094830	0.873771	7170.291504
5925.321835	0.094823	0.873771	7253.071777
5925.322754	0.094896	0.873771	7340.281250
5925.323733	0.094856	0.873771	7433.145020
5925.324660	0.094779	0.873771	7521.005371
5925.325538	0.094841	0.873771	7604.275879
5925.326539	0.094878	0.873771	7699.248535
5925.327444	0.094860	0.873771	7785.096680
5926.343191	1.108652	0.802123	558.760803
5926.344080	1.527931	0.802123	1917.091553
5926.344953	1.515773	0.802123	3240.361084
5926.345966	1.471710	0.802123	4731.203613
5926.346961	1.428611	0.802123	6152.671387
5926.347862	0.844222	0.802123	6913.315918
5926.348721	0.107377	0.802123	7005.552734
5926.349812	0.094867	0.802123	7109.052734
5926.350723	0.094929	0.802123	7195.533203
5926.351632	0.094900	0.802123	7281.797363
5926.352496	0.094889	0.802123	7363.781250
5926.353537	0.094951	0.802123	7462.625488
5926.354421	0.094926	0.802123	7546.539551
5926.355287	0.094933	0.802123	7628.751465
5926.356259	0.094926	0.802123	7721.019043
5926.357189	0.094944	0.802123	7809.316895
5927.336910	1.052047	0.945293	466.056885
5927.337787	1.522277	0.945293	1801.093506
5927.338776	1.513389	0.945293	3297.834961
5927.339838	1.468282	0.945293	4857.150879
5927.340729	1.429365	0.945293	6130.715332
5927.341637	0.841688	0.945293	6894.968262
5927.342726	0.098987	0.945293	7002.765137
5927.343683	0.094937	0.945293	7093.619629
5927.344553	0.094940	0.945293	7176.217773
5927.345585	0.094988	0.945293	7274.245117
5927.346608	0.094900	0.945293	7371.327637
5927.347502	0.094878	0.945293	7456.148437
5927.348446	0.094966	0.945293	7545.796387
5927.349471	0.094955	0.945293	7643.125000
5927.350408	0.094863	0.945293	7732.011719
5927.351273	0.094889	0.945293	7814.090820
5928.371134	1.027650	0.802783	433.668396
5928.372091	1.520922	0.802783	1889.190430
5928.373139	1.509983	0.802783	3471.652588
5928.374023	1.470505	0.802783	4771.579102
5928.374890	1.432932	0.802783	6013.931152
5928.375914	0.800768	0.802783	6833.917480
5928.376873	0.100269	0.802783	6930.075195
5928.377745	0.094885	0.802783	7012.814941
5928.378645	0.094937	0.802783	7098.257812
5928.379715	0.094940	0.802783	7199.843750
5928.380601	0.094885	0.802783	7283.912109
5928.381463	0.094922	0.802783	7365.734863
5928.382546	0.094955	0.802783	7468.570801
5928.383518	0.094907	0.802783	7560.820801
5928.384389	0.094827	0.802783	7643.415039
5928.385274	0.094922	0.802783	7727.420898
5929.361982	1.145266	0.964790	635.622681
5929.363027	1.530666	0.964790	2235.169189
5929.363911	1.506387	0.964790	3566.814941
5929.364823	1.465686	0.964790	4903.520508
5929.365912	1.420591	0.964790	6450.543945
5929.366848	0.494187	0.964790	6913.103027
5929.367713	0.096808	0.964790	6996.841797
5929.368742	0.095006	0.964790	7094.603027
5929.369762	0.094962	0.964790	7191.464355
5929.370655	0.094929	0.964790	7276.236328
5929.371608	0.094984	0.964790	7366.756348
5929.372655	0.095006	0.964790	7466.227539
5929.373598	0.094904	0.964790	7555.721680
5929.374460	0.094958	0.964790	7637.575684
5929.375524	0.095028	0.964790	7738.685547
5929.376525	0.094937	0.964790	7833.716797
5930.396617	1.034993	0.808435	452.291809
5930.397482	1.521980	0.808435	1768.804443
5930.398507	1.513462	0.808435	3320.103027
5930.399545	1.468542	0.808435	4844.450195
5930.400436	1.429962	0.808435	6118.546387
5930.401356	0.841527	0.808435	6892.751465
5930.402415	0.099899	0.808435	6998.543945
5930.403357	0.094852	0.808435	7087.895020
5930.404217	0.094940	0.808435	7169.543457
5930.405250	0.095010	0.808435	7267.688477
5930.406268	0.094940	0.808435	7364.337402
5930.407147	0.094878	0.808435	7447.734863
5930.408075	0.094973	0.808435	7535.870117
5930.409128	0.094893	0.808435	7635.791992
5930.410069	0.094918	0.808435	7725.109863
5930.410930	0.094915	0.808435	7806.831055
5931.388882	1.047272	0.963054	460.799561
5931.389743	1.521368	0.963054	1770.697754
5931.390718	1.515026	0.963054	3247.847656
5931.391655	1.473794	0.963054	4628.792480
5931.392564	1.434749	0.963054	5932.979004
5931.393439	1.032166	0.963054	6836.124023
5931.394406	0.118099	0.963054	6950.326172
5931.395351	0.094841	0.963054	7039.951172
5931.396240	0.094918	0.963054	7124.333496
5931.397153	0.094933	0.963054	7211.007324
5931.398110	0.094889	0.963054	7301.815918
5931.399028	0.094900	0.963054	7388.934082
5931.399893	0.094907	0.963054	7471.028809
5931.400813	0.094918	0.963054	7558.353516
5931.401750	0.094871	0.963054	7647.247070
5931.402665	0.094918	0.963054	7734.097168
5932.423101	1.028258	0.812725	435.981415
5932.424050	1.524470	0.812725	1882.703735
5932.425013	1.512982	0.812725	3339.705566
5932.425931	1.473094	0.812725	4692.006348
5932.426794	1.434939	0.812725	5930.358398
5932.427747	0.968038	0.812725	6852.898926
5932.428697	0.112200	0.812725	6959.488770
5932.429585	0.094838	0.812725	7043.704590
5932.430495	0.094860	0.812725	7130.026855
5932.431433	0.094904	0.812725	7219.046387
5932.432357	0.094882	0.812725	7306.716797
5932.433249	0.094918	0.812725	7391.383789
5932.434182	0.094856	0.812725	7479.884277
5932.435140	0.094841	0.812725	7570.742187
5932.436016	0.094871	0.812725	7653.848633
5932.436947	0.094929	0.812725	7742.227539
5933.414362	1.077473	1.000626	490.250275
5933.415259	1.524521	1.000626	1857.745972
5933.416122	1.516381	1.000626	3166.382324
5933.417098	1.475237	1.000626	4606.213379
5933.418058	1.434386	1.000626	5983.224121
5933.418954	1.031865	1.000626	6907.775391
5933.419873	0.126852	1.000626	7024.352051
5933.420830	0.094922	1.000626	7115.192383
5933.421750	0.094926	1.000626	7202.523926
5933.422612	0.094962	1.000626	7284.381348
5933.423536	0.094951	1.000626	7372.116211
5933.424495	0.094904	1.000626	7463.128906
5933.425417	0.094882	1.000626	7550.609863
5933.426290	0.094867	1.000626	7633.428711
5933.427264	0.094962	1.000626	7725.921875
5933.428189	0.094929	1.000626	7813.731445
5934.450670	1.093224	0.775886	508.349060
5934.451558	1.525514	0.775886	1863.005371
5934.452439	1.517201	0.775886	3199.659424
5934.453352	1.477203	0.775886	4548.346191
5934.454313	1.435880	0.775886	5928.227051
5934.455250	1.026698	0.775886	6890.243164
5934.456111	0.127200	0.775886	6999.762207
5934.457081	0.094871	0.775886	7091.786621
5934.458028	0.094911	0.775886	7181.666992
5934.458914	0.094940	0.775886	7265.784180
5934.459799	0.094918	0.775886	7349.786621
5934.460727	0.094966	0.775886	7437.915039
5934.461652	0.094973	0.775886	7525.765137
5934.462530	0.094977	0.775886	7609.154785
5934.463499	0.094922	0.775886	7701.134277
5934.464447	0.094867	0.775886	7791.068359
5935.441335	1.022069	0.969471	430.291077
5935.442264	1.519596	0.969471	1841.995850
5935.443215	1.513348	0.969471	3281.189941
5935.444143	1.473527	0.969471	4648.622559
5935.445032	1.435474	0.969471	5924.758789
5935.445971	1.006234	0.969471	6869.612793
5935.446924	0.116481	0.969471	6980.619141
5935.447844	0.094929	0.969471	7067.954102
5935.448704	0.094988	0.969471	7149.643555
5935.449665	0.094904	0.969471	7240.845703
5935.450587	0.094896	0.969471	7328.339844
5935.451479	0.094955	0.969471	7413.039551
5935.452358	0.094951	0.969471	7496.501465
5935.453329	0.094962	0.969471	7588.709961
5935.454269	0.094940	0.969471	7677.953613
5935.455158	0.094988	0.969471	7762.397949
5936.476101	1.036838	0.781526	446.877350
5936.477002	1.523185	0.781526	1819.266846
5936.477886	1.517915	0.781526	3161.103760
5936.478815	1.478068	0.781526	4534.228516
5936.479767	1.436448	0.781526	5901.726562
5936.480696	1.038486	0.781526	6866.480469
5936.481573	0.129305	0.781526	6979.881348
5936.482507	0.094926	0.781526	7068.541992
5936.483447	0.094962	0.781526	7157.806641
5936.484373	0.095006	0.781526	7245.782227
5936.485251	0.095006	0.781526	7329.197754
5936.486218	0.094948	0.781526	7421.012207
5936.487161	0.095010	0.781526	7510.606445
5936.488054	0.095010	0.781526	7595.450195
5936.488919	0.094977	0.781526	7677.604980
5936.489871	0.094944	0.781526	7767.991699
5937.467828	1.028379	0.971401	430.890747
5937.468891	1.528594	0.971401	2055.785889
5937.469791	1.510975	0.971401	3415.663574
5937.470666	1.472593	0.971401	4704.182129
5937.471597	1.432566	0.971401	6037.900879
5937.472610	0.828592	0.971401	6877.265137
5937.473532	0.103667	0.971401	6972.846191
5937.474395	0.094856	0.971401	7054.707031
5937.475471	0.094962	0.971401	7156.886230
5937.476337	0.094907	0.971401	7239.075684
5937.477209	0.094918	0.971401	7321.844238
5937.478090	0.094922	0.971401	7405.470215
5937.479118	0.094937	0.971401	7503.064941
5937.480002	0.094904	0.971401	7586.959473
5937.480878	0.094911	0.971401	7670.101562
5937.481855	0.094966	0.971401	7762.883301
5938.502617	1.051739	0.785135	463.817108
5938.503499	1.522896	0.785135	1807.010986
5938.504369	1.518475	0.785135	3128.084473
5938.505313	1.478544	0.785135	4523.830078
5938.506248	1.436829	0.785135	5867.264648
5938.507178	1.067732	0.785135	6860.255371
5938.508056	0.133689	0.785135	6977.634277
5938.508991	0.094838	0.785135	7066.307617
5938.509935	0.094984	0.785135	7155.972656
5938.510857	0.094966	0.785135	7243.531250
5938.511722	0.094929	0.785135	7325.645020
5938.512691	0.095050	0.785135	7417.748535
5938.513621	0.094889	0.785135	7505.995117
5938.514478	0.094977	0.785135	7587.390137
5938.515496	0.094940	0.785135	7684.039062
5938.516396	0.094973	0.785135	7769.514648
