time (s)	coil I (A)	last det (V)	int current (uC)
8639.584841	1.161017	0.144254	624.627075
8639.585803	1.533142	0.144254	2099.509766
8639.586688	1.514443	0.144254	3439.791992
8639.587631	1.473516	0.144254	4829.317383
8639.588687	1.428384	0.144254	6337.690430
8639.589595	1.390345	0.144254	7600.124023
8639.590462	1.355629	0.144254	8775.454102
8639.591537	0.719802	0.144254	9549.241211
8639.592472	0.099990	0.144254	9642.732422
8639.593346	0.094768	0.144254	9725.559570
8639.594292	0.094900	0.144254	9815.334961
8639.595330	0.094893	0.144254	9913.833008
8639.596208	0.094867	0.144254	9997.125977
8639.597077	0.094871	0.144254	10079.568359
8639.598001	0.094882	0.144254	10167.239258
8639.598996	0.094918	0.144254	10261.682617
8639.599903	0.094841	0.144254	10347.704102
8639.600779	0.094918	0.144254	10430.852539
8639.925697	1.030723	-0.102163	437.026398
8639.926627	1.520273	-0.102163	1850.880615
8639.927594	1.512557	-0.102163	3313.523437
8639.928522	1.471989	-0.102163	4679.528809
8639.929402	1.433837	-0.102163	5941.305176
8639.930372	1.394367	-0.102163	7293.840820
8639.931306	1.356497	-0.102163	8560.808594
8639.932220	1.082131	-0.102163	9549.876953
8639.933087	0.151165	-0.102163	9680.936523
8639.934047	0.094772	-0.102163	9771.916992
8639.934983	0.094794	-0.102163	9860.643555
8639.935866	0.094731	-0.102163	9944.291016
8639.936768	0.094750	-0.102163	10029.754883
8639.937729	0.094790	-0.102163	10120.847656
8639.938652	0.094797	-0.102163	10208.345703
8639.939529	0.094808	-0.102163	10291.492187
8639.940561	0.094852	-0.102163	10389.379883
8639.941605	0.094805	-0.102163	10488.356445
8640.561726	1.137488	0.046780	605.143494
8640.562640	1.531271	0.046780	2004.724854
8640.563554	1.515253	0.046780	3389.665771
8640.564453	1.476372	0.046780	4716.924316
8640.565398	1.435660	0.046780	6073.623535
8640.566341	1.396567	0.046780	7390.586426
8640.567245	1.360631	0.046780	8620.596680
8640.568236	0.955510	0.046780	9567.507812
8640.569173	0.118784	0.046780	9678.808594
8640.570089	0.094797	0.046780	9765.642578
8640.570960	0.094900	0.046780	9848.300781
8640.571908	0.094904	0.046780	9938.269531
8640.572835	0.094918	0.046780	10026.258789
8640.573753	0.094915	0.046780	10113.390625
8640.574630	0.094860	0.046780	10196.582031
8640.575553	0.094841	0.046780	10284.120117
8640.576481	0.094922	0.046780	10372.208008
8640.577405	0.094926	0.046780	10459.918945
8641.587692	1.050894	0.179457	490.767273
8641.588576	1.526477	0.179457	1840.172852
8641.589471	1.520321	0.179457	3200.860107
8641.590415	1.478994	0.179457	4597.030273
8641.591376	1.438022	0.179457	5978.969727
8641.592268	1.400878	0.179457	7228.552734
8641.593208	1.363630	0.179457	8510.365234
8641.594176	1.074027	0.179457	9550.023437
8641.595103	0.140321	0.179457	9680.100586
8641.595961	0.094805	0.179457	9761.443359
8641.596897	0.094845	0.179457	9850.217773
8641.597826	0.094937	0.179457	9938.414062
8641.598750	0.094911	0.179457	10026.111328
8641.599613	0.094900	0.179457	10108.009766
8641.600726	0.095083	0.179457	10213.836914
8641.601760	0.094900	0.179457	10311.963867
8641.602649	0.094915	0.179457	10396.342773
8641.603540	0.094980	0.179457	10480.970703
8642.711018	1.057101	0.138477	488.380615
8642.711909	1.526613	0.138477	1848.592529
8642.712844	1.519475	0.138477	3269.301758
8642.713760	1.478401	0.138477	4623.517090
8642.714695	1.437865	0.138477	5967.920898
8642.715585	1.400918	0.138477	7214.737793
8642.716501	1.364161	0.138477	8464.309570
8642.717463	1.118602	0.138477	9540.405273
8642.718380	0.150040	0.138477	9677.992187
8642.719251	0.094750	0.138477	9760.519531
8642.720298	0.095035	0.138477	9860.021484
8642.721354	0.094849	0.138477	9960.181641
8642.722276	0.094911	0.138477	10047.689453
8642.723138	0.094937	0.138477	10129.524414
8642.724212	0.095054	0.138477	10231.612305
8642.725199	0.094933	0.138477	10325.311523
8642.726075	0.094922	0.138477	10408.462891
8642.727050	0.095010	0.138477	10501.097656
8643.616187	1.021747	0.235934	432.198914
8643.617228	1.527953	0.235934	2022.797852
8643.618259	1.510177	0.235934	3579.790527
8643.619148	1.470934	0.235934	4887.450684
8643.620078	1.431083	0.235934	6218.357422
8643.621133	1.387529	0.235934	7682.200684
8643.622069	1.350648	0.235934	8946.407227
8643.622939	0.806023	0.235934	9647.647461
8643.623988	0.100682	0.235934	9753.263672
8643.625016	0.094860	0.235934	9850.779297
8643.625887	0.094823	0.235934	9933.370117
8643.626841	0.094948	0.235934	10023.950195
8643.627890	0.094871	0.235934	10123.469727
8643.628815	0.094926	0.235934	10211.275391
8643.629683	0.094915	0.235934	10293.661133
8643.630755	0.094933	0.235934	10395.428711
8643.631753	0.094944	0.235934	10490.182617
8643.632641	0.094929	0.235934	10574.479492
8644.712884	1.026185	0.152250	428.945435
8644.713957	1.530458	0.152250	2071.126465
8644.714958	1.510291	0.152250	3582.927246
8644.715851	1.470971	0.152250	4896.503906
8644.716812	1.430017	0.152250	6270.750488
8644.717861	1.386903	0.152250	7725.611816
8644.718765	1.351044	0.152250	8946.955078
8644.719633	0.801288	0.152250	9642.472656
8644.720703	0.099814	0.152250	9749.274414
8644.721705	0.094849	0.152250	9844.312500
8644.722577	0.094926	0.152250	9927.087891
8644.723556	0.094969	0.152250	10020.063477
8644.724586	0.094871	0.152250	10117.780273
8644.725473	0.094922	0.152250	10201.975586
8644.726346	0.094863	0.152250	10284.791016
8644.727403	0.094907	0.152250	10385.108398
8644.728399	0.094944	0.152250	10479.672852
8644.729297	0.094871	0.152250	10564.866211
8645.688763	1.031114	0.192843	438.223633
8645.689637	1.522537	0.192843	1768.920654
8645.690637	1.517952	0.192843	3286.872559
8645.691638	1.474248	0.192843	4762.594727
8645.692539	1.435719	0.192843	6056.177734
8645.693405	1.397893	0.192843	7266.752930
8645.694507	1.356335	0.192843	8761.434570
8645.695408	0.929480	0.192843	9598.895508
8645.696325	0.115895	0.192843	9705.170898
8645.697186	0.094797	0.192843	9786.791016
8645.698230	0.094958	0.192843	9885.927734
8645.699121	0.094867	0.192843	9970.454102
8645.699991	0.094838	0.192843	10052.962891
8645.700953	0.094926	0.192843	10144.281250
8645.701888	0.094944	0.192843	10233.053711
8645.702800	0.094860	0.192843	10319.565430
8645.703675	0.094867	0.192843	10402.574219
8645.704704	0.094955	0.192843	10500.283203
8646.710752	1.053171	0.258815	483.405670
8646.711645	1.526558	0.258815	1846.621704
8646.712567	1.519376	0.258815	3247.486572
8646.713525	1.478287	0.258815	4663.685547
8646.714453	1.437737	0.258815	5997.905273
8646.715324	1.401281	0.258815	7218.420898
8646.716300	1.362407	0.258815	8548.130859
8646.717241	1.053549	0.258815	9539.520508
8646.718157	0.138812	0.258815	9666.672852
8646.719037	0.094786	0.258815	9750.084961
8646.720122	0.095028	0.258815	9853.190430
8646.721165	0.094951	0.258815	9952.224609
8646.722056	0.094900	0.258815	10036.780273
8646.722929	0.094995	0.258815	10119.710937
8646.724041	0.094991	0.258815	10225.341797
8646.724998	0.094933	0.258815	10316.192383
8646.725864	0.094918	0.258815	10398.391602
8646.726864	0.094988	0.258815	10493.378906
8647.737846	1.080765	0.226911	522.009644
8647.738726	1.527378	0.226911	1866.102295
8647.739660	1.517864	0.226911	3283.787109
8647.740738	1.471051	0.226911	4869.580078
8647.741686	1.430394	0.226911	6225.593750
8647.742557	1.393645	0.226911	7439.458496
8647.743618	1.352413	0.226911	8874.369141
8647.744631	0.681841	0.226911	9565.074219
8647.745506	0.100862	0.226911	9653.328125
8647.746481	0.094823	0.226911	9745.780273
8647.747513	0.094926	0.226911	9843.743164
8647.748425	0.094878	0.226911	9930.271484
8647.749282	0.094893	0.226911	10011.594727
8647.750340	0.094944	0.226911	10112.044922
8647.751343	0.094937	0.226911	10207.266602
8647.752216	0.094900	0.226911	10290.114258
8647.753175	0.094969	0.226911	10381.190430
8647.754233	0.094977	0.226911	10481.675781
8648.707638	1.130281	0.261611	603.569885
8648.708535	1.530128	0.261611	1976.094727
8648.709415	1.517010	0.261611	3311.063965
8648.710301	1.476929	0.261611	4619.623047
8648.711366	1.432357	0.261611	6145.083496
8648.712266	1.395073	0.261611	7400.649414
8648.713145	1.360283	0.261611	8596.337891
8648.714168	0.934189	0.261611	9552.013672
8648.715073	0.117286	0.261611	9658.158203
8648.715994	0.094874	0.261611	9745.537109
8648.716857	0.094915	0.261611	9827.448242
8648.717900	0.094893	0.261611	9926.420898
8648.718763	0.094849	0.261611	10008.275391
8648.719639	0.094915	0.261611	10091.420898
8648.720601	0.094874	0.261611	10182.689453
8648.721542	0.094852	0.261611	10271.945312
8648.722457	0.094900	0.261611	10358.778320
8648.723328	0.094937	0.261611	10441.467773
8649.782740	1.060715	0.235531	474.139740
8649.783629	1.525283	0.235531	1830.116577
8649.784496	1.520665	0.235531	3148.533203
8649.785484	1.479298	0.235531	4610.079590
8649.786435	1.438004	0.235531	5977.621582
8649.787312	1.401182	0.235531	7206.458008
8649.788226	1.364685	0.235531	8453.780273
8649.789185	1.147460	0.235531	9554.194336
8649.790110	0.163385	0.235531	9705.325195
8649.790985	0.094746	0.235531	9788.228516
8649.791892	0.094951	0.235531	9874.349609
8649.792843	0.094900	0.235531	9964.599609
8649.793773	0.094827	0.235531	10052.788086
8649.794637	0.094845	0.235531	10134.734375
8649.795604	0.094904	0.235531	10226.505859
8649.796557	0.094893	0.235531	10316.938477
8649.797446	0.094951	0.235531	10401.349609
8649.798353	0.094896	0.235531	10487.420898
8650.739133	1.047539	0.240462	446.251648
8650.740236	1.530414	0.240462	2134.298096
8650.741216	1.509547	0.240462	3613.654297
8650.742077	1.471289	0.240462	4880.434082
8650.743145	1.425710	0.240462	6403.092773
8650.744187	1.383113	0.240462	7844.296387
8650.745074	1.348004	0.240462	9039.976562
8650.746007	0.667438	0.240462	9662.696289
8650.747070	0.096965	0.240462	9765.770508
8650.748008	0.094889	0.240462	9854.776367
8650.748871	0.094929	0.240462	9936.700195
8650.749901	0.094958	0.240462	10034.507812
8650.750936	0.094845	0.240462	10132.671875
8650.751809	0.094867	0.240462	10215.490234
8650.752753	0.094893	0.240462	10305.068359
8650.753804	0.094995	0.240462	10404.908203
8650.754739	0.094882	0.240462	10493.622070
8650.755606	0.094863	0.240462	10575.868164
8651.825661	1.112747	0.238295	533.005615
8651.826589	1.529220	0.238295	1952.121704
8651.827468	1.518186	0.238295	3286.607178
8651.828402	1.477844	0.238295	4666.913574
8651.829356	1.436971	0.238295	6037.784180
8651.830263	1.398278	0.238295	7306.021973
8651.831145	1.362737	0.238295	8507.956055
8651.832107	1.091107	0.238295	9557.601562
8651.833065	0.138325	0.238295	9690.117187
8651.833958	0.094783	0.238295	9774.757812
8651.834845	0.094907	0.238295	9858.940430
8651.835788	0.094904	0.238295	9948.434570
8651.836741	0.094808	0.238295	10038.787109
8651.837629	0.094889	0.238295	10123.048828
8651.838560	0.094966	0.238295	10211.461914
8651.839513	0.094900	0.238295	10301.901367
8651.840428	0.094856	0.238295	10388.694336
8651.841298	0.094940	0.238295	10471.291992
8652.753354	1.041614	0.261361	449.977173
8652.754226	1.522617	0.261361	1777.699341
8652.755214	1.518384	0.261361	3277.862305
8652.756136	1.478068	0.261361	4640.640625
8652.757023	1.439476	0.261361	5917.456055
8652.757904	1.402438	0.261361	7153.003906
8652.758853	1.364260	0.261361	8447.686523
8652.759799	1.141853	0.261361	9527.878906
8652.760682	0.172269	0.261361	9679.993164
8652.761591	0.094768	0.261361	9766.137695
8652.762528	0.094962	0.261361	9855.117187
8652.763444	0.094955	0.261361	9942.095703
8652.764321	0.094966	0.261361	10025.380859
8652.765274	0.094871	0.261361	10115.792969
8652.766198	0.094937	0.261361	10203.514648
8652.767121	0.094984	0.261361	10291.184570
8652.767981	0.094958	0.261361	10372.848633
8652.768951	0.094969	0.261361	10464.968750
8653.855166	1.029668	0.251475	438.638550
8653.856190	1.528228	0.251475	2003.543579
8653.857237	1.509375	0.251475	3583.859131
8653.858132	1.469832	0.251475	4899.358398
8653.859087	1.429281	0.251475	6264.321777
8653.860146	1.385094	0.251475	7731.136230
8653.861092	1.348231	0.251475	9006.562500
8653.861964	0.734048	0.251475	9646.652344
8653.863019	0.098119	0.251475	9750.167969
8653.864027	0.094863	0.251475	9845.790039
8653.864919	0.094944	0.251475	9930.479492
8653.865880	0.094937	0.251475	10021.713867
8653.866933	0.094988	0.251475	10121.736328
8653.867860	0.094885	0.251475	10209.695312
8653.868736	0.094911	0.251475	10292.836914
8653.869720	0.094915	0.251475	10386.232422
8653.870711	0.094915	0.251475	10480.292969
8653.871590	0.094929	0.251475	10563.735352
8654.784005	1.108788	0.293946	542.197205
8654.784904	1.527517	0.293946	1915.435059
8654.785826	1.517113	0.293946	3314.213379
8654.786694	1.478379	0.293946	4597.446289
8654.787708	1.436360	0.293946	6053.915039
8654.788631	1.397487	0.293946	7343.794922
8654.789506	1.362052	0.293946	8535.589844
8654.790428	1.107711	0.293946	9556.899414
8654.791360	0.142672	0.293946	9689.870117
8654.792310	0.094775	0.293946	9779.906250
8654.793202	0.094933	0.293946	9864.585937
8654.794109	0.094955	0.293946	9950.709961
8654.795059	0.094867	0.293946	10040.833984
8654.795980	0.094984	0.293946	10128.314453
8654.796844	0.094948	0.293946	10210.348633
8654.797801	0.094937	0.293946	10301.203125
8654.798720	0.094878	0.293946	10388.395508
8654.799611	0.094878	0.293946	10472.931641
8655.880665	1.057313	0.292492	466.275116
8655.881577	1.526298	0.292492	1858.258545
8655.882482	1.518592	0.292492	3232.584717
8655.883378	1.479895	0.292492	4558.570801
8655.884316	1.439030	0.292492	5908.380371
8655.885272	1.399585	0.292492	7246.383789
8655.886195	1.362781	0.292492	8504.230469
8655.887065	1.153103	0.292492	9507.429687
8655.888019	0.165201	0.292492	9665.032227
8655.888970	0.094742	0.292492	9755.131836
8655.889859	0.094874	0.292492	9839.474609
8655.890771	0.094907	0.292492	9926.030273
8655.891697	0.094852	0.292492	10013.863281
8655.892649	0.094808	0.292492	10104.121094
8655.893532	0.094926	0.292492	10187.940430
8655.894438	0.094849	0.292492	10273.873047
8655.895392	0.094889	0.292492	10364.397461
8655.896280	0.094900	0.292492	10448.668945
8656.821777	1.116423	0.322394	560.444458
8656.822710	1.528978	0.322394	1986.981201
8656.823587	1.516846	0.322394	3317.254883
8656.824518	1.476709	0.322394	4692.070801
8656.825445	1.436246	0.322394	6023.471191
8656.826370	1.397769	0.322394	7316.407227
8656.827257	1.362283	0.322394	8524.751953
8656.828210	1.093096	0.322394	9566.472656
8656.829147	0.136996	0.322394	9694.837891
8656.830060	0.094812	0.322394	9781.401367
8656.830923	0.094753	0.322394	9863.173828
8656.831884	0.094808	0.322394	9954.284180
8656.832827	0.094823	0.322394	10043.702148
8656.833718	0.094984	0.322394	10128.333008
8656.834646	0.094856	0.322394	10216.359375
8656.835591	0.094874	0.322394	10306.015625
8656.836489	0.094845	0.322394	10391.186523
8656.837384	0.094907	0.322394	10476.128906
8657.913381	1.111622	0.301455	579.155212
8657.914264	1.529348	0.301455	1929.569580
8657.915136	1.516432	0.301455	3251.898193
8657.916221	1.470773	0.301455	4847.686523
8657.917187	1.429651	0.301455	6228.729492
8657.918053	1.393312	0.301455	7435.337402
8657.919115	1.351952	0.301455	8871.110352
8657.920162	0.647710	0.301455	9549.262695
8657.921042	0.099459	0.301455	9636.787109
8657.921899	0.094838	0.301455	9718.062500
8657.922925	0.094933	0.301455	9815.463867
8657.923880	0.094878	0.301455	9906.072266
8657.924752	0.094889	0.301455	9988.815430
8657.925641	0.094933	0.301455	10073.210937
8657.926729	0.094948	0.301455	10176.513672
8657.927620	0.094856	0.301455	10261.030273
8657.928484	0.094904	0.301455	10343.027344
8657.929547	0.094940	0.301455	10443.949219
8658.860499	1.044899	0.315010	458.710510
8658.861380	1.523152	0.315010	1800.607422
8658.862246	1.521332	0.315010	3118.080811
8658.863179	1.481949	0.315010	4500.739746
8658.864133	1.439670	0.315010	5874.185547
8658.865058	1.401379	0.315010	7170.461426
8658.865932	1.365685	0.315010	8364.070312
8658.866949	1.138088	0.315010	9521.505859
8658.867844	0.160096	0.315010	9664.791992
8658.868764	0.094775	0.315010	9751.985352
8658.869629	0.094764	0.315010	9833.957031
8658.870617	0.094900	0.315010	9927.717773
8658.871535	0.094871	0.315010	10014.808594
8658.872412	0.094907	0.315010	10098.041992
8658.873328	0.094838	0.315010	10184.913086
8658.874255	0.094889	0.315010	10272.875000
8658.875188	0.094940	0.315010	10361.454102
8658.876075	0.094867	0.315010	10445.601562
8659.930608	1.076605	0.362544	514.617310
8659.931535	1.528499	0.362544	1931.535400
8659.932457	1.516000	0.362544	3329.287109
8659.933338	1.477141	0.362544	4630.648437
8659.934315	1.435972	0.362544	6033.592773
8659.935257	1.396762	0.362544	7349.342285
8659.936155	1.360415	0.362544	8570.995117
8659.937048	1.092294	0.362544	9546.413086
8659.938001	0.140673	0.362544	9680.473633
8659.938949	0.094801	0.362544	9770.344727
8659.939823	0.094889	0.362544	9853.277344
8659.940728	0.094812	0.362544	9939.082031
8659.941673	0.094885	0.362544	10028.749023
8659.942596	0.094929	0.362544	10116.369141
8659.943475	0.094904	0.362544	10199.789062
8659.944434	0.094878	0.362544	10290.777344
8659.945354	0.094874	0.362544	10378.061523
8659.946269	0.094904	0.362544	10464.898437
8660.894145	1.032986	0.350214	443.150970
8660.895111	1.522046	0.350214	1913.447266
8660.896190	1.510034	0.350214	3542.774170
8660.897119	1.468964	0.350214	4907.441406
8660.897991	1.430841	0.350214	6155.134766
8660.899080	1.386775	0.350214	7665.332520
8660.900071	1.347601	0.350214	9000.805664
8660.900968	0.705802	0.350214	9633.910156
8660.901954	0.100814	0.350214	9733.312500
8660.903013	0.094933	0.350214	9833.846680
8660.903918	0.094955	0.350214	9919.781250
8660.904782	0.094958	0.350214	10001.825195
8660.905868	0.094995	0.350214	10104.990234
8660.906821	0.094937	0.350214	10195.464844
8660.907693	0.094951	0.350214	10278.262695
8660.908692	0.094955	0.350214	10373.123047
8660.909738	0.094937	0.350214	10472.426758
8660.910619	0.095006	0.350214	10556.126953
8661.942804	1.103558	0.358677	562.814758
8661.943715	1.529323	0.358677	1956.027588
8661.944578	1.516260	0.358677	3264.559814
8661.945662	1.470601	0.358677	4858.690918
8661.946670	1.427241	0.358677	6297.350098
8661.947557	1.390411	0.358677	7530.645020
8661.948548	1.351648	0.358677	8870.127930
8661.949610	0.634834	0.358677	9544.321289
8661.950508	0.098101	0.358677	9632.416016
8661.951369	0.094896	0.358677	9714.122070
8661.952478	0.094933	0.358677	9819.402344
8661.953452	0.094885	0.358677	9911.820312
8661.954322	0.094889	0.358677	9994.374023
8661.955360	0.094926	0.358677	10092.906250
8661.956402	0.094878	0.358677	10191.769531
8661.957291	0.094929	0.358677	10276.161133
8661.958183	0.094882	0.358677	10360.795898
8661.959255	0.094937	0.358677	10462.567383
8662.937030	1.043211	0.354246	455.882996
8662.937914	1.523697	0.354246	1802.831543
8662.938796	1.521002	0.354246	3144.355469
8662.939754	1.480129	0.354246	4562.319336
8662.940703	1.439077	0.354246	5928.003418
8662.941601	1.401478	0.354246	7186.530762
8662.942564	1.363455	0.354246	8499.537109
8662.943520	1.098245	0.354246	9549.458984
8662.944425	0.149121	0.354246	9684.414062
8662.945310	0.094801	0.354246	9768.312500
8662.946263	0.094911	0.354246	9858.762695
8662.947192	0.094940	0.354246	9946.961914
8662.948116	0.094882	0.354246	10034.632812
8662.948985	0.094830	0.354246	10117.040039
8662.949965	0.094768	0.354246	10209.913086
8662.950921	0.094915	0.354246	10300.651367
8662.951811	0.094889	0.354246	10385.102539
8662.952783	0.094944	0.354246	10477.387695
8663.961030	1.035875	0.408475	450.605713
8663.961911	1.523298	0.408475	1792.631592
8663.962857	1.519058	0.408475	3229.660156
8663.963800	1.478013	0.408475	4623.426270
8663.964735	1.437517	0.408475	5967.504883
8663.965603	1.400991	0.408475	7183.565430
8663.966565	1.362319	0.408475	8494.117187
8663.967495	1.084072	0.408475	9502.304687
8663.968420	0.148737	0.408475	9639.885742
8663.969293	0.094819	0.408475	9722.663086
8663.970279	0.094926	0.408475	9816.259766
8663.971221	0.094933	0.408475	9905.686523
8663.972114	0.094918	0.408475	9990.448242
8663.973020	0.094904	0.408475	10076.430664
8663.973978	0.094874	0.408475	10167.320312
8663.974904	0.094896	0.408475	10255.194336
8663.975774	0.094951	0.408475	10337.801758
8663.976710	0.094904	0.408475	10426.631836
8664.990140	1.037776	0.407017	441.054749
8664.991124	1.527393	0.407017	1944.009033
8664.992078	1.514795	0.407017	3389.123535
8664.992979	1.474951	0.407017	4718.054687
8664.993896	1.436158	0.407017	6035.011719
8664.994858	1.396384	0.407017	7378.333496
8664.995783	1.359313	0.407017	8635.697266
8664.996654	1.095275	0.407017	9589.681641
8664.997618	0.133645	0.407017	9718.515625
8664.998545	0.094819	0.407017	9806.413086
8664.999467	0.094929	0.407017	9893.937500
8665.000344	0.094845	0.407017	9977.116211
8665.001312	0.094944	0.407017	10069.021484
8665.002255	0.094948	0.407017	10158.556641
8665.003148	0.094984	0.407017	10243.377930
8665.004034	0.094849	0.407017	10327.414062
8665.005148	0.094933	0.407017	10433.168945
8665.006168	0.094885	0.407017	10529.952148
8665.970120	1.035824	0.478427	448.511780
8665.970990	1.521621	0.478427	1772.322266
8665.971997	1.515853	0.478427	3298.786621
8665.972984	1.472739	0.478427	4752.380371
8665.973914	1.433020	0.478427	6085.088867
8665.974786	1.395187	0.478427	7301.691895
8665.975902	1.353486	0.478427	8812.182617
8665.976808	0.882015	0.478427	9611.289062
8665.977671	0.113075	0.478427	9708.873047
8665.978711	0.094937	0.478427	9807.607422
8665.979679	0.094940	0.478427	9899.509766
8665.980564	0.094863	0.478427	9983.463867
8665.981420	0.094980	0.478427	10064.767578
8665.982511	0.094911	0.478427	10168.315430
8665.983397	0.094871	0.478427	10252.371094
8665.984268	0.094999	0.478427	10335.115234
8665.985269	0.094973	0.478427	10430.183594
8665.986242	0.094962	0.478427	10522.582031
8667.035064	1.022161	0.384023	430.329620
8667.036011	1.524313	0.384023	1873.853760
8667.036947	1.516699	0.384023	3293.484375
8667.037878	1.476504	0.384023	4668.109375
8667.038746	1.438334	0.384023	5916.583008
8667.039741	1.398358	0.384023	7307.949219
8667.040679	1.360558	0.384023	8584.152344
8667.041547	1.123418	0.384023	9559.279297
8667.042423	0.163623	0.384023	9702.613281
8667.043389	0.094816	0.384023	9794.205078
8667.044337	0.094937	0.384023	9884.205078
8667.045231	0.094904	0.384023	9969.048828
8667.046143	0.094830	0.384023	10055.534180
8667.047095	0.094863	0.384023	10145.843750
8667.048008	0.094904	0.384023	10232.490234
8667.048868	0.094904	0.384023	10314.107422
8667.049825	0.094834	0.384023	10404.863281
8667.050737	0.094845	0.384023	10491.362305
8667.996629	1.034304	0.524874	460.265411
8667.997540	1.525122	0.524874	1849.651611
8667.998414	1.519365	0.524874	3177.576660
8667.999438	1.474647	0.524874	4687.615234
8668.000397	1.433943	0.524874	6062.766602
8668.001324	1.395385	0.524874	7356.288086
8668.002188	1.360679	0.524874	8531.914062
8668.003159	1.048652	0.524874	9550.155273
8668.004083	0.132543	0.524874	9672.625000
8668.004981	0.094757	0.524874	9757.716797
8668.005863	0.094907	0.524874	9841.424805
8668.006817	0.094841	0.524874	9931.903320
8668.007768	0.094849	0.524874	10022.104492
8668.008656	0.094874	0.524874	10106.352539
8668.009570	0.094860	0.524874	10193.054687
8668.010521	0.094860	0.524874	10283.266602
8668.011407	0.094845	0.524874	10367.298828
8668.012334	0.094838	0.524874	10455.212891
8669.061566	1.025559	0.407911	435.862610
8669.062541	1.525301	0.407911	1923.031494
8669.063421	1.517476	0.407911	3258.410156
8669.064327	1.477771	0.407911	4597.270508
8669.065212	1.439136	0.407911	5870.905273
8669.066191	1.398765	0.407911	7240.295898
8669.067116	1.362235	0.407911	8500.363281
8669.068001	1.173973	0.407911	9539.330078
8669.068942	0.181212	0.407911	9709.850586
8669.069872	0.094750	0.407911	9797.967773
8669.070812	0.094889	0.407911	9887.163086
8669.071702	0.094786	0.407911	9971.523437
8669.072622	0.094856	0.407911	10058.791016
8669.073573	0.094852	0.407911	10148.995117
8669.074489	0.094823	0.407911	10235.852539
8669.075347	0.094856	0.407911	10317.239258
8669.076283	0.094801	0.407911	10405.972656
8669.077220	0.094783	0.407911	10494.784180
8670.034366	1.050959	0.505304	449.810638
8670.035467	1.530417	0.505304	2134.800293
8670.036361	1.511990	0.505304	3486.519043
8670.037229	1.473428	0.505304	4765.454102
8670.038325	1.426981	0.505304	6329.425293
8670.039292	1.386889	0.505304	7670.546387
8670.040167	1.352314	0.505304	8853.821289
8670.041048	0.849243	0.505304	9602.004883
8670.042156	0.100935	0.505304	9713.840820
8670.043030	0.094860	0.505304	9796.748047
8670.043895	0.094856	0.505304	9878.798828
8670.044939	0.094907	0.505304	9977.881836
8670.045905	0.094860	0.505304	10069.516602
8670.046824	0.094904	0.505304	10156.733398
8670.047687	0.094977	0.505304	10238.698242
8670.048787	0.094940	0.505304	10343.132812
8670.049690	0.094904	0.505304	10428.831055
8670.050554	0.094871	0.505304	10510.798828
8671.071684	1.039197	0.470080	451.011444
8671.072553	1.522148	0.470080	1773.758423
8671.073533	1.517307	0.470080	3260.719482
8671.074488	1.476368	0.470080	4670.651367
8671.075376	1.437872	0.470080	5947.481934
8671.076309	1.399658	0.470080	7253.363281
8671.077250	1.361323	0.470080	8534.368164
8671.078182	1.087943	0.470080	9548.331055
8671.079064	0.152069	0.470080	9682.456055
8671.079993	0.094841	0.470080	9770.563477
8671.080950	0.094896	0.470080	9861.378906
8671.081872	0.094904	0.470080	9948.879883
8671.082731	0.094827	0.470080	10030.335937
8671.083708	0.094852	0.470080	10123.006836
8671.084660	0.094867	0.470080	10213.320312
8671.085545	0.094900	0.470080	10297.306641
8671.086465	0.094882	0.470080	10384.597656
8671.087389	0.094904	0.470080	10472.288086
8672.090643	1.077535	0.471418	551.698120
8672.091696	1.531227	0.471418	2164.080078
8672.092632	1.508339	0.471418	3575.885254
8672.093502	1.469114	0.471418	4854.014160
8672.094572	1.424363	0.471418	6378.082031
8672.095581	1.382761	0.471418	7773.288086
8672.096457	1.348293	0.471418	8954.392578
8672.097451	0.644714	0.471418	9595.238281
8672.098494	0.096526	0.471418	9695.915039
8672.099396	0.094867	0.471418	9781.485352
8672.100252	0.094911	0.471418	9862.729492
8672.101338	0.094944	0.471418	9965.838867
8672.102323	0.094797	0.471418	10059.213867
8672.103200	0.094948	0.471418	10142.482422
8672.104178	0.094904	0.471418	10235.297852
8672.105221	0.094852	0.471418	10334.228516
8672.106122	0.094863	0.471418	10419.700195
8672.106984	0.094940	0.471418	10501.539062
8673.074698	1.097710	0.499995	549.952637
8673.075662	1.530494	0.499995	2025.349121
8673.076534	1.515040	0.499995	3346.464355
8673.077592	1.469194	0.499995	4900.872070
8673.078638	1.424410	0.499995	6390.805176
8673.079538	1.386962	0.499995	7639.070312
8673.080473	1.350520	0.499995	8901.806641
8673.081538	0.598290	0.499995	9538.985352
8673.082469	0.097214	0.499995	9629.492187
8673.083329	0.094922	0.499995	9711.125000
8673.084373	0.094999	0.499995	9810.303711
8673.085387	0.094874	0.499995	9906.505859
8673.086262	0.094929	0.499995	9989.569336
8673.087214	0.094937	0.499995	10079.949219
8673.088263	0.094841	0.499995	10179.437500
8673.089181	0.094885	0.499995	10266.541992
8673.090039	0.094801	0.499995	10347.880859
8673.091076	0.094948	0.499995	10446.341797
8674.144728	1.063923	0.538795	470.254059
8674.145608	1.524196	0.538795	1811.546143
8674.146550	1.517593	0.538795	3241.118652
8674.147492	1.476841	0.538795	4632.302734
8674.148395	1.437561	0.538795	5930.420410
8674.149274	1.400387	0.538795	7161.360352
8674.150226	1.362957	0.538795	8458.894531
8674.151180	1.127358	0.538795	9534.394531
8674.152074	0.157625	0.538795	9675.310547
8674.152983	0.094761	0.538795	9761.448242
8674.153899	0.094896	0.538795	9848.373047
8674.154836	0.094922	0.538795	9937.314453
8674.155715	0.094889	0.538795	10020.721680
8674.156640	0.094856	0.538795	10108.463867
8674.157595	0.094980	0.538795	10199.169922
8674.158501	0.094871	0.538795	10285.123047
8674.159382	0.094926	0.538795	10368.752930
8674.160308	0.094896	0.538795	10456.626953
8675.099121	1.057756	0.502782	493.972260
8675.100021	1.524628	0.502782	1866.137207
8675.100954	1.516926	0.502782	3281.429443
8675.101817	1.478654	0.502782	4557.507324
8675.102737	1.438235	0.502782	5880.683594
8675.103695	1.398340	0.502782	7220.292969
8675.104627	1.361814	0.502782	8489.503906
8675.105494	1.145372	0.502782	9482.541992
8675.106472	0.156409	0.502782	9635.509766
8675.107420	0.094761	0.502782	9725.342773
8675.108307	0.094841	0.502782	9809.466797
8675.109222	0.094834	0.502782	9896.240234
8675.110180	0.094852	0.502782	9987.108398
8675.111100	0.094834	0.502782	10074.355469
8675.111959	0.094900	0.502782	10155.874023
8675.112899	0.094827	0.502782	10245.010742
8675.113857	0.094893	0.502782	10335.917969
8675.114746	0.094940	0.502782	10420.319336
8676.171198	1.032620	0.559461	438.863342
8676.172065	1.521669	0.559461	1758.150146
8676.173048	1.517183	0.559461	3249.540527
8676.173997	1.476039	0.559461	4650.301270
8676.174890	1.437568	0.559461	5934.049805
8676.175807	1.399442	0.559461	7217.338379
8676.176773	1.361243	0.559461	8532.298828
8676.177699	1.105016	0.559461	9555.543945
8676.178571	0.157269	0.559461	9692.682617
8676.179517	0.094713	0.559461	9782.281250
8676.180427	0.094830	0.559461	9868.577148
8676.181343	0.094922	0.559461	9955.525391
8676.182218	0.094841	0.559461	10038.511719
8676.183199	0.094911	0.559461	10131.619141
8676.184130	0.094915	0.559461	10219.984375
8676.185018	0.094819	0.559461	10304.183594
8676.185924	0.094816	0.559461	10390.086914
8676.186886	0.094797	0.559461	10481.282227
8677.141953	1.030151	0.544890	439.874634
8677.142875	1.522394	0.544890	1843.521729
8677.143822	1.516414	0.544890	3279.565430
8677.144746	1.476299	0.544890	4643.665527
8677.145634	1.437572	0.544890	5920.229492
8677.146608	1.397827	0.544890	7281.712891
8677.147565	1.359752	0.544890	8582.996094
8677.148459	1.100277	0.544890	9566.643555
8677.149354	0.155702	0.544890	9705.997070
8677.150288	0.094838	0.544890	9794.575195
8677.151237	0.094904	0.544890	9884.638672
8677.152110	0.094926	0.544890	9967.508789
8677.153019	0.094878	0.544890	10053.752930
8677.153986	0.094915	0.544890	10145.535156
8677.154910	0.094900	0.544890	10233.222656
8677.155787	0.094911	0.544890	10316.459961
8677.156743	0.094816	0.544890	10407.103516
8677.157655	0.094915	0.544890	10493.666016
8678.177239	1.058910	0.641268	468.038177
8678.178104	1.522998	0.641268	1785.431519
8678.179067	1.516582	0.641268	3245.899902
8678.179995	1.476467	0.641268	4616.061523
8678.180886	1.438162	0.641268	5897.463379
8678.181809	1.400142	0.641268	7189.793945
8678.182772	1.361909	0.641268	8501.312500
8678.183698	1.129578	0.641268	9547.301758
8678.184576	0.160902	0.641268	9688.574219
8678.185561	0.094746	0.641268	9781.899414
8678.186502	0.094834	0.641268	9871.138672
8678.187436	0.094882	0.641268	9959.757812
8678.188297	0.094863	0.641268	10041.435547
8678.189272	0.094904	0.641268	10133.966797
8678.190202	0.094819	0.641268	10222.148437
8678.191089	0.094871	0.641268	10306.298828
8678.191999	0.094834	0.641268	10392.597656
8678.192932	0.094786	0.641268	10481.033203
8679.190980	1.040574	0.579473	447.446686
8679.191845	1.521713	0.579473	1763.728149
8679.192824	1.516989	0.579473	3248.859863
8679.193780	1.475841	0.579473	4659.763672
8679.194678	1.437081	0.579473	5950.262695
8679.195593	1.398918	0.579473	7230.272949
8679.196561	1.360624	0.579473	8547.356445
8679.197490	1.094608	0.579473	9564.247070
8679.198362	0.153409	0.579473	9698.020508
8679.199326	0.094764	0.579473	9789.373047
8679.200245	0.094845	0.579473	9876.535156
8679.201178	0.094863	0.579473	9965.042969
8679.202035	0.094827	0.579473	10046.309570
8679.202991	0.094885	0.579473	10137.019531
8679.203934	0.094915	0.579473	10226.524414
8679.204821	0.094940	0.579473	10310.736328
8679.205736	0.094867	0.579473	10397.540039
8679.206671	0.094929	0.579473	10486.298828
8680.189365	1.018638	0.678808	427.827881
8680.190332	1.521185	0.678808	1898.814087
8680.191357	1.511689	0.678808	3448.295898
8680.192249	1.472809	0.678808	4762.041504
8680.193116	1.434525	0.678808	6005.774902
8680.194186	1.391477	0.678808	7494.655273
8680.195113	1.354098	0.678808	8749.904297
8680.195996	0.971411	0.678808	9607.660156
8680.196955	0.124563	0.678808	9727.116211
8680.197990	0.094922	0.678808	9825.360352
8680.198868	0.094907	0.678808	9908.688477
8680.199732	0.094995	0.678808	9990.764648
8680.200761	0.095028	0.678808	10088.548828
8680.201712	0.094951	0.678808	10178.847656
8680.202588	0.094911	0.678808	10261.989258
8680.203511	0.094969	0.678808	10349.646484
8680.204566	0.094918	0.678808	10449.785156
8680.205457	0.094977	0.678808	10534.409180
8681.242060	1.043254	0.550441	461.118439
8681.243018	1.528206	0.550441	1925.139282
8681.243967	1.514268	0.550441	3362.179199
8681.244862	1.474973	0.550441	4682.280273
8681.245779	1.435364	0.550441	5998.508789
8681.246744	1.395560	0.550441	7345.224609
8681.247665	1.358906	0.550441	8596.777344
8681.248538	1.093660	0.550441	9551.541992
8681.249505	0.141841	0.550441	9688.702148
8681.250458	0.094852	0.550441	9779.096680
8681.251347	0.094933	0.550441	9863.492187
8681.252236	0.094962	0.550441	9947.913086
8681.253172	0.094889	0.550441	10036.729492
8681.254125	0.094922	0.550441	10127.190430
8681.255014	0.094926	0.550441	10211.579102
8681.255927	0.094889	0.550441	10298.212891
8681.256885	0.094922	0.550441	10389.148437
8681.257785	0.094808	0.550441	10474.475586
8682.208772	1.098190	0.709322	546.898499
8682.209706	1.528125	0.709322	1974.167236
8682.210636	1.513246	0.709322	3381.485840
8682.211516	1.474559	0.709322	4679.098145
8682.212478	1.433657	0.709322	6058.276367
8682.213438	1.394235	0.709322	7396.741699
8682.214335	1.358082	0.709322	8614.941406
8682.215243	1.047616	0.709322	9566.176758
8682.216184	0.128247	0.709322	9686.857422
8682.217129	0.094816	0.709322	9776.458008
8682.218016	0.094856	0.709322	9860.595703
8682.218937	0.094893	0.709322	9947.992187
8682.219885	0.094929	0.709322	10037.985352
8682.220787	0.094823	0.709322	10123.515625
8682.221665	0.094966	0.709322	10206.895508
8682.222593	0.094878	0.709322	10294.942383
8682.223530	0.094885	0.709322	10383.849609
8682.224453	0.094893	0.709322	10471.435547
8683.270730	1.162130	0.599156	653.117126
8683.271655	1.531706	0.599156	2069.945557
8683.272573	1.512019	0.599156	3457.979004
8683.273444	1.472098	0.599156	4740.176758
8683.274498	1.428424	0.599156	6245.735352
8683.275382	1.391810	0.599156	7476.095703
8683.276260	1.357116	0.599156	8667.642578
8683.277269	0.888955	0.599156	9564.598633
8683.278194	0.110208	0.599156	9666.541016
8683.279111	0.094764	0.599156	9753.440430
8683.279969	0.094882	0.599156	9834.848633
8683.280980	0.094882	0.599156	9930.773437
8683.281879	0.094893	0.599156	10016.082031
8683.282792	0.094915	0.599156	10102.739258
8683.283667	0.094893	0.599156	10185.770508
8683.284639	0.094878	0.599156	10277.992187
8683.285564	0.094904	0.599156	10365.778320
8683.286452	0.094878	0.599156	10450.030273
8684.244410	1.034879	0.719534	435.684082
8684.245395	1.526510	0.719534	1939.296387
8684.246326	1.514301	0.719534	3349.110352
8684.247211	1.475933	0.719534	4655.310547
8684.248115	1.437195	0.719534	5954.534668
8684.249075	1.397303	0.719534	7295.946289
8684.250007	1.359976	0.719534	8563.443359
8684.250876	1.143750	0.719534	9557.362305
8684.251828	0.153640	0.719534	9703.627930
8684.252741	0.094808	0.719534	9790.187500
8684.253676	0.094929	0.719534	9878.946289
8684.254551	0.094819	0.719534	9961.913086
8684.255511	0.094794	0.719534	10052.915039
8684.256455	0.094900	0.719534	10142.500977
8684.257347	0.094896	0.719534	10227.148437
8684.258260	0.094889	0.719534	10313.782227
8684.259181	0.094845	0.719534	10401.134766
8684.260100	0.094926	0.719534	10488.371094
8685.293032	1.063824	0.655524	488.295410
8685.293904	1.524987	0.655524	1818.083740
8685.294824	1.517871	0.655524	3214.524902
8685.295786	1.476398	0.655524	4634.819336
8685.296719	1.436210	0.655524	5974.802734
8685.297605	1.398724	0.655524	7214.072266
8685.298521	1.361712	0.655524	8461.400391
8685.299488	1.078605	0.655524	9504.411133
8685.300425	0.139303	0.655524	9634.938477
8685.301286	0.094728	0.655524	9716.499023
8685.302250	0.094834	0.655524	9807.918945
8685.303205	0.094878	0.655524	9898.527344
8685.304094	0.094915	0.655524	9982.906250
8685.304983	0.094893	0.655524	10067.265625
8685.305925	0.094830	0.655524	10156.595703
8685.306858	0.094874	0.655524	10245.113281
8685.307751	0.094871	0.655524	10329.833008
8685.308657	0.094841	0.655524	10415.758789
8686.286273	1.028225	0.762351	442.136780
8686.287147	1.522170	0.762351	1772.513672
8686.288050	1.519688	0.762351	3144.791504
8686.288995	1.478500	0.762351	4541.973633
8686.289947	1.437671	0.762351	5910.636230
8686.290828	1.400966	0.762351	7144.886719
8686.291739	1.363649	0.762351	8387.170898
8686.292697	1.139901	0.762351	9479.196289
8686.293627	0.163466	0.762351	9631.219727
8686.294499	0.094761	0.762351	9713.851562
8686.295461	0.094893	0.762351	9805.138672
8686.296386	0.094882	0.762351	9892.904297
8686.297293	0.094904	0.762351	9978.981445
8686.298157	0.094893	0.762351	10060.968750
8686.299123	0.094973	0.762351	10152.712891
8686.300063	0.094929	0.762351	10241.946289
8686.300952	0.094940	0.762351	10326.347656
8686.301877	0.094900	0.762351	10414.129883
8687.307253	1.084208	0.644913	520.419739
8687.308139	1.526210	0.644913	1872.641602
8687.309016	1.518358	0.644913	3204.241699
8687.309955	1.478060	0.644913	4592.140137
8687.310948	1.435514	0.644913	6017.605469
8687.311873	1.396714	0.644913	7309.565918
8687.312735	1.361759	0.644913	8483.402344
8687.313773	1.038805	0.644913	9561.681641
8687.314669	0.134707	0.644913	9682.378906
8687.315549	0.094827	0.644913	9765.826172
8687.316409	0.094937	0.644913	9847.471680
8687.317477	0.094907	0.644913	9948.833008
8687.318372	0.094779	0.644913	10033.660156
8687.319245	0.094878	0.644913	10116.488281
8687.320246	0.094958	0.644913	10211.541992
8687.321180	0.094940	0.644913	10300.215820
8687.322101	0.094893	0.644913	10387.612305
8687.322962	0.094900	0.644913	10469.321289
8688.328179	1.072006	0.657647	496.338593
8688.329071	1.525550	0.657647	1857.129639
8688.329937	1.518362	0.657647	3172.031006
8688.330937	1.476548	0.657647	4648.579102
8688.331869	1.436158	0.657647	5987.078613
8688.332743	1.398809	0.657647	7209.637207
8688.333627	1.362938	0.657647	8414.474609
8688.334591	1.109008	0.657647	9483.557617
8688.335550	0.146931	0.657647	9624.464844
8688.336440	0.094772	0.657647	9708.811523
8688.337356	0.094867	0.657647	9795.709961
8688.338311	0.094962	0.657647	9886.398437
8688.339226	0.094801	0.657647	9973.141602
8688.340092	0.094856	0.657647	10055.287109
8688.341040	0.094838	0.657647	10145.193359
8688.341972	0.094849	0.657647	10233.591797
8688.342883	0.094948	0.657647	10320.088867
8688.343756	0.094958	0.657647	10402.987305
8689.327584	1.085226	0.716259	485.095947
8689.328511	1.526832	0.716259	1900.469360
8689.329431	1.515934	0.716259	3295.128418
8689.330307	1.477028	0.716259	4589.004395
8689.331290	1.435247	0.716259	5999.851562
8689.332244	1.396003	0.716259	7331.638672
8689.333139	1.359844	0.716259	8548.699219
8689.334053	1.106268	0.716259	9559.828125
8689.335010	0.145173	0.716259	9698.758789
8689.335933	0.094761	0.716259	9786.222656
8689.336795	0.094885	0.716259	9868.013672
8689.337711	0.094893	0.716259	9954.935547
8689.338655	0.094889	0.716259	10044.510742
8689.339576	0.094958	0.716259	10131.967773
8689.340451	0.094889	0.716259	10214.995117
8689.341416	0.094878	0.716259	10306.552734
8689.342363	0.094929	0.716259	10396.451172
8689.343255	0.094962	0.716259	10481.157227
8690.366917	1.035125	0.732892	449.244049
8690.367780	1.521823	0.732892	1762.576904
8690.368751	1.516955	0.732892	3235.540527
8690.369706	1.475676	0.732892	4644.811523
8690.370606	1.436686	0.732892	5937.828613
8690.371524	1.399124	0.732892	7222.224121
8690.372473	1.361177	0.732892	8513.980469
8690.373393	1.111329	0.732892	9536.403320
8690.374291	0.154270	0.732892	9674.937500
8690.375311	0.094794	0.732892	9771.626953
8690.376351	0.095024	0.732892	9870.452148
8690.377307	0.094878	0.732892	9961.155273
8690.378169	0.094929	0.732892	10042.984375
8690.379205	0.094958	0.732892	10141.361328
8690.380230	0.094779	0.732892	10238.509766
8690.381110	0.094856	0.732892	10321.983398
8690.382023	0.094907	0.732892	10408.633789
8690.383097	0.094827	0.732892	10510.477539
8691.350980	1.026486	0.781006	441.388794
8691.351849	1.521665	0.781006	1763.715820
8691.352760	1.518882	0.781006	3147.417236
8691.353767	1.476061	0.781006	4633.810547
8691.354659	1.437279	0.781006	5915.863281
8691.355530	1.401237	0.781006	7136.340332
8691.356540	1.361045	0.781006	8510.996094
8691.357454	1.095088	0.781006	9511.906250
8691.358380	0.147964	0.781006	9648.920898
8691.359260	0.094904	0.781006	9732.435547
8691.360284	0.094882	0.781006	9829.594727
8691.361171	0.094874	0.781006	9913.748047
8691.362089	0.095032	0.781006	10000.987305
8691.362954	0.094940	0.781006	10083.110352
8691.363943	0.094926	0.781006	10176.992187
8691.364860	0.094999	0.781006	10264.106445
8691.365738	0.094944	0.781006	10347.466797
8691.366657	0.094893	0.781006	10434.672852
8692.403659	1.058547	0.716287	459.409576
8692.404552	1.524650	0.716287	1820.921631
8692.405557	1.514326	0.716287	3342.819336
8692.406613	1.468857	0.716287	4893.932617
8692.407511	1.429717	0.716287	6177.818359
8692.408403	1.391843	0.716287	7419.342773
8692.409496	1.349597	0.716287	8894.452148
8692.410457	0.726207	0.716287	9592.336914
8692.411324	0.101854	0.716287	9680.644531
8692.412362	0.094915	0.716287	9779.166016
8692.413393	0.094805	0.716287	9876.909180
8692.414286	0.094900	0.716287	9961.655273
8692.415214	0.094852	0.716287	10049.677734
8692.416270	0.094896	0.716287	10149.887695
8692.417207	0.094878	0.716287	10238.788086
8692.418064	0.094911	0.716287	10320.126953
8692.419120	0.094999	0.716287	10420.445312
8692.420142	0.094874	0.716287	10517.407227
8693.377498	1.046158	0.803569	465.540497
8693.378371	1.523240	0.803569	1795.328857
8693.379265	1.517179	0.803569	3151.686768
8693.380282	1.474783	0.803569	4651.541016
8693.381205	1.435247	0.803569	5976.273437
8693.382095	1.398157	0.803569	7220.632812
8693.382980	1.361722	0.803569	8425.756836
8693.383978	1.075594	0.803569	9499.200195
8693.384934	0.135710	0.803569	9628.939453
8693.385826	0.094768	0.803569	9713.472656
8693.386742	0.094863	0.803569	9800.367187
8693.387698	0.094852	0.803569	9891.045898
8693.388587	0.094907	0.803569	9975.417969
8693.389489	0.094922	0.803569	10061.037109
8693.390453	0.094852	0.803569	10152.474609
8693.391366	0.094849	0.803569	10239.071289
8693.392249	0.094830	0.803569	10322.806641
8693.393212	0.094926	0.803569	10414.219727
8694.434273	1.066410	0.728384	492.681396
8694.435164	1.525789	0.728384	1852.158936
8694.436031	1.518171	0.728384	3168.413574
8694.437049	1.475731	0.728384	4670.708008
8694.437977	1.435419	0.728384	6002.776367
8694.438856	1.398571	0.728384	7232.120117
8694.439767	1.362477	0.728384	8473.336914
8694.440704	1.090847	0.728384	9495.460937
8694.441653	0.142705	0.728384	9630.887695
8694.442545	0.094772	0.728384	9715.423828
8694.443466	0.094823	0.728384	9802.755859
8694.444421	0.094845	0.728384	9893.333008
8694.445339	0.094856	0.728384	9980.411133
8694.446199	0.094874	0.728384	10062.002930
8694.447167	0.094889	0.728384	10153.855469
8694.448113	0.094812	0.728384	10243.547852
8694.449001	0.094867	0.728384	10327.790039
8694.449878	0.094849	0.728384	10410.972656
8695.407052	1.050872	0.870161	462.383514
8695.407980	1.525682	0.870161	1878.216797
8695.408848	1.516809	0.870161	3194.807129
8695.409896	1.472996	0.870161	4738.506836
8695.410780	1.434569	0.870161	6006.666016
8695.411657	1.398354	0.870161	7233.022949
8695.412647	1.359624	0.870161	8579.050781
8695.413587	1.042661	0.870161	9559.152344
8695.414497	0.132653	0.870161	9679.866211
8695.415375	0.094779	0.870161	9763.082031
8695.416395	0.094962	0.870161	9859.943359
8695.417299	0.094867	0.870161	9945.703125
8695.418177	0.094885	0.870161	10029.012695
8695.419098	0.094937	0.870161	10116.449219
8695.420094	0.094845	0.870161	10210.915039
8695.421014	0.094797	0.870161	10298.128906
8695.421876	0.094900	0.870161	10379.932617
8695.422934	0.094966	0.870161	10480.406250
8696.462865	1.096161	0.713749	555.753540
8696.463733	1.527740	0.713749	1881.832275
8696.464611	1.516025	0.713749	3212.902588
8696.465706	1.469777	0.713749	4822.308105
8696.466681	1.428428	0.713749	6215.025391
8696.467553	1.392180	0.713749	7429.006348
8696.468577	1.351967	0.713749	8813.419922
8696.469621	0.686001	0.713749	9529.604492
8696.470515	0.099481	0.713749	9618.541016
8696.471448	0.094816	0.713749	9707.003906
8696.472499	0.094940	0.713749	9806.786133
8696.473439	0.094922	0.713749	9896.012695
8696.474302	0.094863	0.713749	9977.879883
8696.475336	0.094922	0.713749	10076.029297
8696.476347	0.094900	0.713749	10171.972656
8696.477240	0.094907	0.713749	10256.724609
8696.478178	0.094929	0.713749	10345.768555
8696.479218	0.094915	0.713749	10444.479492
8697.436638	1.056105	0.875756	474.190979
8697.437512	1.523075	0.875756	1805.358398
8697.438374	1.519493	0.875756	3115.161621
8697.439397	1.476178	0.875756	4625.291504
8697.440307	1.436386	0.875756	5932.402344
8697.441186	1.399757	0.875756	7162.789062
8697.442056	1.363151	0.875756	8348.730469
8697.443118	1.092114	0.875756	9508.555664
8697.444009	0.146133	0.875756	9638.759766
8697.444878	0.094801	0.875756	9721.141602
8697.445884	0.094852	0.875756	9816.563477
8697.446802	0.094962	0.875756	9903.738281
8697.447719	0.094918	0.875756	9990.778320
8697.448580	0.094940	0.875756	10072.521484
8697.449614	0.094852	0.875756	10170.598633
8697.450489	0.094882	0.875756	10253.620117
8697.451362	0.094918	0.875756	10336.483398
8697.452313	0.094845	0.875756	10426.680664
8698.490294	1.022197	0.727607	428.300659
8698.491226	1.521559	0.727607	1846.393555
8698.492292	1.511327	0.727607	3457.468018
8698.493240	1.469780	0.727607	4850.819824
8698.494107	1.431881	0.727607	6092.260742
8698.495151	1.389089	0.727607	7542.469727
8698.496180	1.348953	0.727607	8930.541992
8698.497067	0.798505	0.727607	9638.815430
8698.498038	0.105564	0.727607	9741.318359
8698.499089	0.094896	0.727607	9841.054687
8698.500010	0.094915	0.727607	9928.470703
8698.500866	0.094904	0.727607	10009.708008
8698.501912	0.094933	0.727607	10109.007812
8698.502907	0.094852	0.727607	10203.385742
8698.503795	0.094849	0.727607	10287.611328
8698.504769	0.094918	0.727607	10380.061523
8698.505816	0.094988	0.727607	10479.513672
8698.506736	0.094984	0.727607	10566.899414
8699.471303	1.041508	0.906601	452.014313
8699.472172	1.521584	0.906601	1774.271118
8699.473154	1.516025	0.906601	3263.008057
8699.474078	1.476401	0.906601	4627.203125
8699.474957	1.437726	0.906601	5890.963867
8699.475890	1.399955	0.906601	7197.121582
8699.476826	1.361342	0.906601	8471.336914
8699.477771	1.123389	0.906601	9532.939453
8699.478648	0.164165	0.906601	9676.912109
8699.479555	0.094863	0.906601	9762.953125
8699.480507	0.094948	0.906601	9853.342773
8699.481429	0.094856	0.906601	9940.799805
8699.482310	0.094878	0.906601	10024.387695
8699.483266	0.094889	0.906601	10115.101562
8699.484178	0.094878	0.906601	10201.629883
8699.485093	0.094845	0.906601	10288.413086
8699.485957	0.094860	0.906601	10370.372070
8699.486922	0.094882	0.906601	10461.932617
8700.512700	1.027247	0.733891	432.471130
8700.513617	1.523478	0.733891	1829.500244
8700.514554	1.516582	0.733891	3250.537598
8700.515471	1.477053	0.733891	4604.995117
8700.516338	1.438997	0.733891	5852.604980
8700.517311	1.399259	0.733891	7214.083984
8700.518262	1.361594	0.733891	8508.959961
8700.519159	1.153605	0.733891	9543.743164
8700.520073	0.173291	0.733891	9702.130859
8700.521008	0.094768	0.733891	9790.739258
8700.521955	0.094889	0.733891	9880.598633
8700.522824	0.094867	0.733891	9963.038086
8700.523733	0.094904	0.733891	10049.305664
8700.524685	0.094805	0.733891	10139.559570
8700.525607	0.094856	0.733891	10227.016602
8700.526481	0.094893	0.733891	10309.953125
8700.527445	0.094929	0.733891	10401.464844
8700.528373	0.094893	0.733891	10489.525391
8701.505061	1.125710	0.846857	583.118042
8701.506055	1.531487	0.846857	2105.416016
8701.506955	1.510723	0.846857	3465.066406
8701.507965	1.466880	0.846857	4946.615234
8701.509012	1.422444	0.846857	6435.914062
8701.509900	1.385039	0.846857	7665.828613
8701.510773	1.349546	0.846857	8843.982422
8701.511881	0.598099	0.846857	9506.676758
8701.512837	0.096530	0.846857	9598.958984
8701.513698	0.094874	0.846857	9680.645508
8701.514739	0.094962	0.846857	9779.500977
8701.515776	0.094962	0.846857	9877.976562
8701.516654	0.094900	0.846857	9961.298828
8701.517553	0.094944	0.846857	10046.653320
8701.518632	0.094980	0.846857	10149.137695
8701.519581	0.094951	0.846857	10239.246094
8701.520446	0.094922	0.846857	10321.353516
8701.521471	0.095054	0.846857	10418.783203
8702.528002	1.065765	0.765993	528.619629
8702.529040	1.531194	0.765993	2117.999023
8702.529924	1.511162	0.765993	3453.866211
8702.530789	1.472754	0.765993	4727.798340
8702.531847	1.428054	0.765993	6238.679687
8702.532801	1.388339	0.765993	7563.154785
8702.533680	1.353578	0.765993	8752.950195
8702.534603	0.862584	0.765993	9549.115234
8702.535691	0.101239	0.765993	9659.263672
8702.536573	0.094907	0.765993	9742.971680
8702.537436	0.094951	0.765993	9824.914062
8702.538459	0.094951	0.765993	9922.048828
8702.539425	0.094849	0.765993	10013.672852
8702.540296	0.094926	0.765993	10096.352539
8702.541200	0.094962	0.765993	10182.198242
8702.542280	0.094948	0.765993	10284.741211
8702.543169	0.094904	0.765993	10369.110352
8702.544039	0.094951	0.765993	10451.717773
8703.542730	1.036622	0.749299	454.040558
8703.543592	1.522218	0.749299	1766.192383
8703.544638	1.513359	0.749299	3349.166260
8703.545673	1.468429	0.749299	4868.990234
8703.546567	1.430010	0.749299	6147.418945
8703.547539	1.390261	0.749299	7498.752930
8703.548601	1.348239	0.749299	8930.582031
8703.549528	0.720026	0.749299	9598.045898
8703.550394	0.101880	0.749299	9686.273437
8703.551463	0.094871	0.749299	9787.690430
8703.552462	0.094885	0.749299	9882.480469
8703.553355	0.094878	0.749299	9967.206055
8703.554323	0.094926	0.749299	10059.093750
8703.555368	0.094860	0.749299	10158.221680
8703.556275	0.094878	0.749299	10244.276367
8703.557134	0.094907	0.749299	10325.801758
8703.558211	0.094915	0.749299	10428.024414
8703.559190	0.094852	0.749299	10520.884766
8704.543168	1.032594	0.816886	440.917633
8704.544040	1.521903	0.816886	1768.017090
8704.545008	1.517150	0.816886	3236.618164
8704.545977	1.474958	0.816886	4665.853027
8704.546906	1.435063	0.816886	5999.026855
8704.547774	1.398417	0.816886	7212.852539
8704.548814	1.357866	0.816886	8625.033203
8704.549694	1.075261	0.816886	9571.262695
8704.550570	0.146840	0.816886	9699.894531
8704.551505	0.094863	0.816886	9788.591797
8704.552483	0.094915	0.816886	9881.417969
8704.553390	0.094896	0.816886	9967.489258
8704.554276	0.094893	0.816886	10051.564453
8704.555242	0.094962	0.816886	10143.297852
8704.556166	0.094889	0.816886	10230.975586
8704.557081	0.094999	0.816886	10317.899414
8704.557941	0.094955	0.816886	10399.560547
8704.558987	0.094845	0.816886	10498.768555
8705.581506	1.035256	0.631878	445.160248
8705.582372	1.522251	0.631878	1763.429565
8705.583307	1.518362	0.631878	3183.097900
8705.584260	1.476731	0.631878	4590.422363
8705.585190	1.437118	0.631878	5926.941895
8705.586059	1.399940	0.631878	7143.489746
8705.587030	1.362191	0.631878	8466.177734
8705.587985	1.116808	0.631878	9532.729492
8705.588890	0.155779	0.631878	9673.708984
8705.589826	0.094772	0.631878	9762.415039
8705.590769	0.094878	0.631878	9851.884766
8705.591667	0.094904	0.631878	9937.108398
8705.592557	0.094882	0.631878	10021.552734
8705.593476	0.094863	0.631878	10108.732422
8705.594429	0.094838	0.631878	10199.112305
8705.595324	0.094871	0.631878	10284.021484
8705.596232	0.094889	0.631878	10370.180664
8705.597199	0.094904	0.631878	10461.952148
8706.564572	1.069904	0.808367	483.596436
8706.565449	1.523826	0.808367	1819.991577
8706.566388	1.516230	0.808367	3243.731934
8706.567346	1.475164	0.808367	4656.938477
8706.568259	1.435345	0.808367	5967.408691
8706.569138	1.398571	0.808367	7196.751953
8706.570090	1.361265	0.808367	8492.675781
8706.571048	1.096194	0.808367	9542.829102
8706.571943	0.145598	0.808367	9673.139648
8706.572837	0.094812	0.808367	9757.901367
8706.573771	0.094845	0.808367	9846.486328
8706.574716	0.094937	0.808367	9936.201172
8706.575600	0.094929	0.808367	10020.118164
8706.576526	0.094948	0.808367	10108.040039
8706.577468	0.094882	0.808367	10197.418945
8706.578373	0.094874	0.808367	10283.280273
8706.579252	0.094918	0.808367	10366.712891
8706.580181	0.094885	0.808367	10454.861328
8707.616238	1.073247	0.646996	509.792358
8707.617176	1.528986	0.646996	1943.980835
8707.618104	1.514506	0.646996	3349.441895
8707.618974	1.475731	0.646996	4633.328125
8707.619954	1.434712	0.646996	6039.345703
8707.620897	1.395754	0.646996	7355.541992
8707.621795	1.359283	0.646996	8576.178711
8707.622684	1.075620	0.646996	9532.405273
8707.623622	0.138497	0.646996	9662.315430
8707.624565	0.094860	0.646996	9751.767578
8707.625452	0.094991	0.646996	9836.025391
8707.626358	0.094926	0.646996	9922.028320
8707.627316	0.094860	0.646996	10012.904297
8707.628232	0.094911	0.646996	10099.842773
8707.629105	0.094911	0.646996	10182.700195
8707.630053	0.094948	0.646996	10272.709961
8707.631006	0.094915	0.646996	10363.163086
8707.631935	0.094944	0.646996	10451.366211
8708.594118	1.033180	0.812266	447.366943
8708.594986	1.521654	0.812266	1768.162598
8708.595908	1.517725	0.812266	3167.504639
8708.596878	1.476251	0.812266	4599.468262
8708.597810	1.436426	0.812266	5938.217285
8708.598679	1.399629	0.812266	7154.494629
8708.599642	1.361678	0.812266	8465.791016
8708.600608	1.103815	0.812266	9532.076172
8708.601506	0.153325	0.812266	9669.761719
8708.602436	0.094845	0.812266	9757.967773
8708.603364	0.094863	0.812266	9846.000977
8708.604271	0.094929	0.812266	9932.101562
8708.605161	0.094860	0.812266	10016.526367
8708.606071	0.094926	0.812266	10102.908203
8708.607026	0.094878	0.812266	10193.516602
8708.607943	0.094922	0.812266	10280.559570
8708.608806	0.094929	0.812266	10362.483398
8708.609763	0.094882	0.812266	10453.285156
8709.641749	1.104254	0.670610	567.586609
8709.642636	1.528154	0.670610	1923.059326
8709.643563	1.515289	0.670610	3327.732422
8709.644427	1.476456	0.670610	4603.390625
8709.645406	1.435221	0.670610	6008.471680
8709.646341	1.396117	0.670610	7313.840820
8709.647232	1.360422	0.670610	8525.977539
8709.648128	1.091056	0.670610	9503.563477
8709.649104	0.137109	0.670610	9637.381836
8709.650058	0.094783	0.670610	9727.804687
8709.650945	0.094918	0.670610	9811.997070
8709.651861	0.094951	0.670610	9898.972656
8709.652809	0.094955	0.670610	9988.990234
8709.653734	0.094882	0.670610	10076.755859
8709.654594	0.094940	0.670610	10158.404297
8709.655510	0.094845	0.670610	10245.282227
8709.656463	0.094918	0.670610	10335.739258
8709.657386	0.094926	0.670610	10423.355469
8710.630840	1.023160	0.809611	430.750549
8710.631810	1.525833	0.809611	1910.808105
8710.632747	1.514044	0.809611	3329.467529
8710.633674	1.474358	0.809611	4696.197266
8710.634545	1.435825	0.809611	5946.800781
8710.635528	1.395930	0.809611	7319.000000
8710.636482	1.358196	0.809611	8614.718750
8710.637359	1.081520	0.809611	9563.211914
8710.638289	0.147477	0.809611	9700.365234
8710.639225	0.094717	0.809611	9789.020508
8710.640150	0.094940	0.809611	9876.839844
8710.641039	0.094944	0.809611	9961.245117
8710.641946	0.094958	0.809611	10047.372070
8710.642904	0.094867	0.809611	10138.254883
8710.643830	0.094926	0.809611	10226.156250
8710.644693	0.094885	0.809611	10308.041992
8710.645651	0.094958	0.809611	10399.012695
8710.646592	0.094878	0.809611	10488.292969
8711.656899	1.044357	0.717681	449.073395
8711.657778	1.523119	0.717681	1787.894897
8711.658718	1.517406	0.717681	3214.256592
8711.659678	1.476321	0.717681	4631.524414
8711.660601	1.436722	0.717681	5957.619141
8711.661468	1.399614	0.717681	7171.084961
8711.662413	1.362257	0.717681	8458.417969
8711.663367	1.119324	0.717681	9526.252930
8711.664263	0.157438	0.717681	9667.317383
8711.665158	0.094797	0.717681	9752.161133
8711.666100	0.094882	0.717681	9841.540039
8711.667049	0.094878	0.717681	9931.579102
8711.667939	0.094860	0.717681	10016.003906
8711.668853	0.094926	0.717681	10102.765625
8711.669805	0.094937	0.717681	10193.145508
8711.670696	0.094889	0.717681	10277.691406
8711.671618	0.094885	0.717681	10365.175781
8711.672542	0.094874	0.717681	10452.839844
8712.671695	1.036388	0.710180	457.047058
8712.672560	1.522672	0.710180	1774.158447
8712.673587	1.514685	0.710180	3329.739990
8712.674636	1.469451	0.710180	4871.193359
8712.675520	1.430933	0.710180	6136.137695
8712.676428	1.392301	0.710180	7400.346680
8712.677526	1.350319	0.710180	8882.996094
8712.678481	0.747847	0.710180	9597.189453
8712.679342	0.102814	0.710180	9685.711914
8712.680374	0.094951	0.710180	9783.701172
8712.681397	0.094933	0.710180	9880.817383
8712.682286	0.094896	0.710180	9965.179687
8712.683239	0.095054	0.710180	10055.765625
8712.684276	0.094958	0.710180	10154.237305
8712.685207	0.094907	0.710180	10242.595703
8712.686070	0.094911	0.710180	10324.503906
8712.687132	0.094937	0.710180	10425.326172
8712.688136	0.094915	0.710180	10520.620117
8713.671106	1.034678	0.750153	442.842010
8713.671974	1.521874	0.750153	1763.828491
8713.672968	1.516223	0.750153	3270.954346
8713.673903	1.475548	0.750153	4650.591797
8713.674795	1.437063	0.750153	5932.452148
8713.675710	1.399387	0.750153	7212.891602
8713.676669	1.361360	0.750153	8518.435547
8713.677599	1.117082	0.750153	9557.322266
8713.678468	0.161111	0.750153	9697.327148
8713.679421	0.094772	0.750153	9787.644531
8713.680355	0.094926	0.750153	9876.304687
8713.681282	0.094933	0.750153	9964.307617
8713.682156	0.094962	0.750153	10047.304687
8713.683121	0.094948	0.750153	10138.928711
8713.684060	0.094969	0.750153	10228.105469
8713.684948	0.094999	0.750153	10312.464844
8713.685828	0.094958	0.750153	10396.028320
8713.686916	0.095002	0.750153	10499.390625
8714.713550	1.046437	0.610076	457.292877
8714.714417	1.523448	0.610076	1778.122681
8714.715372	1.517410	0.610076	3227.249023
8714.716300	1.477181	0.610076	4598.073242
8714.717187	1.438802	0.610076	5874.291016
8714.718109	1.401215	0.610076	7166.210937
8714.719057	1.362631	0.610076	8457.984375
8714.719998	1.131295	0.610076	9522.533203
8714.720882	0.165022	0.610076	9668.413086
8714.721812	0.094845	0.610076	9756.619141
8714.722764	0.094911	0.610076	9846.974609
8714.723638	0.094867	0.610076	9929.888672
8714.724548	0.094889	0.610076	10016.237305
8714.725500	0.094819	0.610076	10106.504883
8714.726429	0.094885	0.610076	10194.653320
8714.727302	0.094911	0.610076	10277.510742
8714.728218	0.094830	0.610076	10364.375000
8714.729170	0.094988	0.610076	10454.803711
8715.688384	1.050890	0.818530	449.780914
8715.689364	1.526579	0.818530	1945.828735
8715.690270	1.514531	0.818530	3317.994141
8715.691160	1.476171	0.818530	4631.786133
8715.692078	1.436301	0.818530	5950.310547
8715.693031	1.397164	0.818530	7281.808105
8715.693960	1.360041	0.818530	8545.287109
8715.694836	1.145856	0.818530	9549.056641
8715.695815	0.148191	0.818530	9694.135742
8715.696737	0.094867	0.818530	9781.603516
8715.697654	0.094962	0.818530	9868.683594
8715.698515	0.094973	0.818530	9950.455078
8715.699482	0.094904	0.818530	10042.226562
8715.700426	0.094940	0.818530	10131.849609
8715.701305	0.094955	0.818530	10215.314453
8715.702210	0.095010	0.818530	10301.297852
8715.703161	0.094984	0.818530	10391.627930
8715.704084	0.094966	0.818530	10479.281250
8716.745145	1.025753	0.585117	431.842072
8716.746077	1.522207	0.585117	1850.538940
8716.747143	1.510975	0.585117	3461.238770
8716.748092	1.469443	0.585117	4855.740723
8716.748962	1.431581	0.585117	6101.215820
8716.750013	1.388921	0.585117	7560.971680
8716.751037	1.348509	0.585117	8941.845703
8716.751927	0.768904	0.585117	9626.169922
8716.752908	0.103759	0.585117	9727.957031
8716.753955	0.094991	0.585117	9827.413086
8716.754863	0.094995	0.585117	9913.668945
8716.755721	0.094878	0.585117	9995.074219
8716.756789	0.094973	0.585117	10096.505859
8716.757793	0.094973	0.585117	10191.859375
8716.758661	0.094922	0.585117	10274.251953
8716.759626	0.094973	0.585117	10365.901367
8716.760666	0.094896	0.585117	10464.593750
8716.761577	0.094980	0.585117	10551.121094
8717.717949	1.029825	0.842611	438.705627
8717.718872	1.523240	0.842611	1844.656006
8717.719831	1.514923	0.842611	3297.467285
8717.720755	1.475083	0.842611	4660.443848
8717.721624	1.436851	0.842611	5909.066895
8717.722585	1.397908	0.842611	7252.456055
8717.723548	1.359994	0.842611	8562.129883
8717.724440	1.117767	0.842611	9559.178711
8717.725328	0.160737	0.842611	9701.913086
8717.726270	0.094878	0.842611	9791.288086
8717.727190	0.094944	0.842611	9878.636719
8717.728055	0.094900	0.842611	9960.725586
8717.729016	0.094980	0.842611	10052.001953
8717.729960	0.094904	0.842611	10141.590820
8717.730847	0.094940	0.842611	10225.802734
8717.731754	0.094915	0.842611	10311.890625
8717.732680	0.094915	0.842611	10399.781250
8717.733622	0.094962	0.842611	10489.235352
8718.766515	1.039706	0.607233	435.636749
8718.767555	1.530253	0.607233	2027.099487
8718.768453	1.513462	0.607233	3386.188477
8718.769327	1.475354	0.607233	4675.647949
8718.770299	1.434023	0.607233	6069.518555
8718.771251	1.393685	0.607233	7396.307129
8718.772174	1.357537	0.607233	8649.313477
8718.773050	1.062308	0.607233	9579.895508
8718.774091	0.115994	0.607233	9700.644531
8718.774977	0.094772	0.607233	9784.612305
8718.775852	0.094867	0.607233	9867.621094
8718.776793	0.094926	0.607233	9956.946289
8718.777781	0.094907	0.607233	10050.714844
8718.778701	0.094900	0.607233	10138.022461
8718.779557	0.094944	0.607233	10219.293945
8718.780636	0.094926	0.607233	10321.718750
8718.781533	0.094852	0.607233	10406.800781
8718.782404	0.094937	0.607233	10489.490234
8719.755723	1.041335	0.778392	452.980927
8719.756589	1.522141	0.778392	1771.155151
8719.757575	1.515886	0.778392	3265.818848
8719.758498	1.475852	0.778392	4628.030273
8719.759408	1.436876	0.778392	5935.587891
8719.760280	1.399156	0.778392	7155.652344
8719.761263	1.360931	0.778392	8493.448242
8719.762196	1.112996	0.778392	9531.873047
8719.763085	0.155116	0.778392	9669.771484
8719.764007	0.094823	0.778392	9757.198242
8719.764962	0.094999	0.778392	9847.921875
8719.765880	0.094918	0.778392	9935.056641
8719.766768	0.094860	0.778392	10019.291992
8719.767695	0.094900	0.778392	10107.264648
8719.768652	0.094904	0.778392	10198.086914
8719.769576	0.094955	0.778392	10285.825195
8719.770434	0.094918	0.778392	10367.264648
8719.771368	0.094907	0.778392	10455.908203
8720.781764	1.035601	0.645558	440.130219
8720.782657	1.521951	0.645558	1799.232178
8720.783739	1.512612	0.645558	3435.878906
8720.784629	1.472853	0.645558	4746.717773
8720.785502	1.435162	0.645558	5999.614746
8720.786368	1.396857	0.645558	7209.292480
8720.787433	1.356533	0.645558	8654.000000
8720.788316	1.037120	0.645558	9569.777344
8720.789193	0.137076	0.645558	9689.993164
8720.790174	0.094911	0.645558	9783.100586
8720.791121	0.094944	0.645558	9873.012695
8720.792040	0.094889	0.645558	9960.215820
8720.792905	0.094885	0.645558	10042.291992
8720.793931	0.094871	0.645558	10139.628906
8720.794821	0.094830	0.645558	10224.028320
8720.795696	0.094896	0.645558	10307.062500
8720.796657	0.094944	0.645558	10398.303711
8720.797621	0.094882	0.645558	10489.769531
8721.796638	1.113695	0.652676	566.870789
8721.797571	1.530472	0.652676	1994.801514
8721.798437	1.515084	0.652676	3306.864258
8721.799503	1.468945	0.652676	4872.759766
8721.800531	1.425070	0.652676	6337.731445
8721.801417	1.388108	0.652676	7567.595215
8721.802376	1.350582	0.652676	8862.803711
8721.803433	0.633827	0.652676	9532.758789
8721.804340	0.097925	0.652676	9621.576172
8721.805213	0.094852	0.652676	9704.381836
8721.806261	0.094955	0.652676	9803.894531
8721.807253	0.094860	0.652676	9897.995117
8721.808146	0.094900	0.652676	9982.741211
8721.809118	0.094926	0.652676	10075.008789
8721.810172	0.094896	0.652676	10175.029297
8721.811093	0.094896	0.652676	10262.428711
8721.811953	0.094929	0.652676	10344.067383
8721.813034	0.094896	0.652676	10446.650391
8722.796992	1.038340	0.697024	443.371063
8722.797949	1.525961	0.697024	1903.715454
8722.798882	1.515209	0.697024	3317.405273
8722.799803	1.475046	0.697024	4675.922852
8722.800685	1.436810	0.697024	5943.189453
8722.801646	1.397153	0.697024	7285.854004
8722.802583	1.359390	0.697024	8559.602539
8722.803461	1.137583	0.697024	9558.400391
8722.804489	0.125911	0.697024	9687.836914
8722.805433	0.094878	0.697024	9777.401367
8722.806364	0.094966	0.697024	9865.814453
8722.807220	0.094871	0.697024	9947.023437
8722.808166	0.094900	0.697024	10036.798828
8722.809123	0.094907	0.697024	10127.625000
8722.810013	0.094904	0.697024	10212.088867
8722.810919	0.094933	0.697024	10298.097656
8722.811830	0.094948	0.697024	10384.594727
8722.812770	0.094926	0.697024	10473.825195
8723.833301	1.052329	0.594721	473.548065
8723.834236	1.528235	0.594721	1902.447632
8723.835159	1.515546	0.594721	3301.296387
8723.836040	1.477079	0.594721	4602.602539
8723.836994	1.436338	0.594721	5972.868652
8723.837938	1.396644	0.594721	7291.300781
8723.838869	1.359880	0.594721	8557.349609
8723.839734	1.133987	0.594721	9538.248047
8723.840719	0.148568	0.594721	9684.587891
8723.841663	0.094834	0.594721	9774.111328
8723.842556	0.095013	0.594721	9858.958008
8723.843421	0.094995	0.594721	9941.128906
8723.844374	0.094904	0.594721	10031.572266
8723.845302	0.095017	0.594721	10119.748047
8723.846177	0.094944	0.594721	10202.824219
8723.847178	0.094915	0.594721	10297.833984
8723.848094	0.094889	0.594721	10384.751953
8723.849004	0.094911	0.594721	10471.121094
8724.819408	1.054457	0.724054	461.852081
8724.820275	1.522826	0.724054	1782.142212
8724.821259	1.515981	0.724054	3273.867920
8724.822169	1.475984	0.724054	4617.013184
8724.823060	1.437704	0.724054	5898.007324
8724.823972	1.399548	0.724054	7174.395508
8724.824922	1.361990	0.724054	8468.286133
8724.825854	1.147046	0.724054	9537.333008
8724.826731	0.166857	0.724054	9683.666016
8724.827704	0.094724	0.724054	9775.833008
8724.828629	0.094841	0.724054	9863.561523
8724.829557	0.094867	0.724054	9951.597656
8724.830417	0.094860	0.724054	10033.176758
8724.831387	0.094969	0.724054	10125.296875
8724.832338	0.094951	0.724054	10215.595703
8724.833213	0.094940	0.724054	10298.667969
8724.834122	0.094929	0.724054	10384.958984
8724.835082	0.094940	0.724054	10476.101562
8725.864891	1.033077	0.592404	439.057892
8725.865756	1.522251	0.592404	1755.804932
8725.866799	1.514868	0.592404	3335.812500
8725.867682	1.476141	0.592404	4639.245117
8725.868561	1.438319	0.592404	5903.527344
8725.869545	1.398084	0.592404	7279.241699
8725.870500	1.359335	0.592404	8577.406250
8725.871405	1.082281	0.592404	9556.871094
8725.872287	0.149520	0.592404	9688.748047
8725.873313	0.094871	0.592404	9786.084961
8725.874210	0.094871	0.592404	9871.183594
8725.875084	0.094878	0.592404	9954.106445
8725.876002	0.094933	0.592404	10041.254883
8725.876994	0.094834	0.592404	10135.330078
8725.877921	0.094885	0.592404	10223.289062
8725.878796	0.094885	0.592404	10306.313477
8725.879798	0.094900	0.592404	10401.403320
8725.880706	0.094874	0.592404	10487.548828
8726.845934	1.057767	0.742870	503.497223
8726.846917	1.530623	0.742870	2008.099243
8726.847842	1.511755	0.742870	3406.472900
8726.848735	1.473014	0.742870	4721.874023
8726.849738	1.430717	0.742870	6156.882812
8726.850656	1.391374	0.742870	7434.164551
8726.851584	1.355255	0.742870	8691.841797
8726.852453	0.969650	0.742870	9534.467773
8726.853484	0.108750	0.742870	9646.588867
8726.854363	0.094764	0.742870	9729.886719
8726.855280	0.094878	0.742870	9816.889648
8726.856142	0.094977	0.742870	9898.759766
8726.857110	0.094944	0.742870	9990.665039
8726.858027	0.094958	0.742870	10077.742187
8726.858904	0.094926	0.742870	10160.992187
8726.859925	0.094984	0.742870	10257.970703
8726.860825	0.094922	0.742870	10343.400391
8726.861737	0.094951	0.742870	10429.996094
8727.892429	1.050399	0.559670	465.326843
8727.893462	1.531095	0.559670	2046.947998
8727.894352	1.513352	0.559670	3393.831299
8727.895222	1.475101	0.559670	4677.169434
8727.896219	1.432537	0.559670	6105.408203
8727.897137	1.393619	0.559670	7384.750977
8727.898058	1.357456	0.559670	8634.967773
8727.898936	1.034220	0.559670	9543.012695
8727.899978	0.113346	0.559670	9661.119141
8727.900864	0.094863	0.559670	9745.167969
8727.901739	0.094929	0.559670	9828.231445
8727.902701	0.094955	0.559670	9919.578125
8727.903662	0.094885	0.559670	10010.762695
8727.904580	0.094962	0.559670	10097.937500
8727.905447	0.094860	0.559670	10180.180664
8727.906484	0.094951	0.559670	10278.645508
8727.907352	0.094878	0.559670	10361.000000
8727.908225	0.094955	0.559670	10443.895508
8728.874478	1.089020	0.741891	519.462402
8728.875435	1.528250	0.741891	1981.997192
8728.876372	1.513019	0.741891	3399.695801
8728.877239	1.474570	0.741891	4678.148437
8728.878211	1.433774	0.741891	6071.777344
8728.879150	1.394205	0.741891	7380.936035
8728.880042	1.358192	0.741891	8592.443359
8728.880929	1.016093	0.741891	9493.717773
8728.882035	0.113800	0.741891	9619.581055
8728.883064	0.094823	0.741891	9717.154297
8728.883952	0.094962	0.741891	9801.480469
8728.884885	0.094885	0.741891	9890.008789
8728.885949	0.094991	0.741891	9991.080078
8728.886888	0.094977	0.741891	10080.263672
8728.887756	0.094955	0.741891	10162.684570
8728.888802	0.094973	0.741891	10262.026367
8728.889819	0.094896	0.741891	10358.536133
8728.890708	0.094915	0.741891	10442.915039
8729.918927	1.044598	0.534364	458.578674
8729.919802	1.524492	0.534364	1792.509277
8729.920711	1.519464	0.534364	3173.702148
8729.921655	1.477445	0.534364	4568.410156
8729.922606	1.437078	0.534364	5935.071289
8729.923495	1.400072	0.534364	7179.735352
8729.924423	1.363294	0.534364	8444.872070
8729.925368	1.141897	0.534364	9523.964844
8729.926281	0.158181	0.534364	9668.383789
8729.927156	0.094845	0.534364	9751.373047
8729.928105	0.094889	0.534364	9841.422852
8729.929027	0.094929	0.534364	9928.947266
8729.929941	0.094944	0.534364	10015.725586
8729.930799	0.094962	0.534364	10097.203125
8729.931921	0.094867	0.534364	10203.643555
8729.932944	0.094911	0.534364	10300.737305
8729.933831	0.094893	0.534364	10384.907227
8729.934738	0.094991	0.534364	10471.064453
8730.903997	1.025746	0.737650	433.890503
8730.905010	1.524562	0.737650	1978.271606
8730.906055	1.508990	0.737650	3555.166504
8730.906939	1.469484	0.737650	4854.189941
8730.907810	1.431790	0.737650	6101.278320
8730.908896	1.386720	0.737650	7607.256348
8730.909873	1.348861	0.737650	8925.093750
8730.910753	0.801292	0.737650	9630.230469
8730.911630	0.106392	0.737650	9723.536133
8730.912737	0.094969	0.737650	9828.666992
8730.913636	0.094867	0.737650	9913.952148
8730.914501	0.094951	0.737650	9996.084961
8730.915589	0.094995	0.737650	10099.439453
8730.916547	0.094907	0.737650	10190.360352
8730.917425	0.094984	0.737650	10273.756836
8730.918305	0.094966	0.737650	10357.327148
8730.919388	0.094926	0.737650	10460.131836
8730.920274	0.094915	0.737650	10544.226562
8731.944388	1.040750	0.534159	448.563049
8731.945250	1.522507	0.534159	1760.964355
8731.946310	1.514066	0.534159	3365.874512
8731.947194	1.475013	0.534159	4669.786133
8731.948064	1.437484	0.534159	5920.397461
8731.949058	1.396542	0.534159	7308.560059
8731.949992	1.358694	0.534159	8577.580078
8731.950909	1.067758	0.534159	9556.713867
8731.951791	0.141929	0.534159	9681.894531
8731.952815	0.094827	0.534159	9778.997070
8731.953709	0.094955	0.534159	9863.886719
8731.954586	0.094955	0.534159	9947.162109
8731.955551	0.094948	0.534159	10038.786133
8731.956516	0.094863	0.534159	10130.329102
8731.957430	0.094926	0.534159	10217.090820
8731.958294	0.094874	0.534159	10299.062500
8731.959324	0.094907	0.534159	10396.817383
8731.960193	0.094926	0.534159	10479.307617
8732.931517	1.025603	0.724517	433.830078
8732.932411	1.521511	0.724517	1794.061035
8732.933368	1.516113	0.724517	3244.981445
8732.934295	1.476284	0.724517	4613.497070
8732.935177	1.438301	0.724517	5882.078125
8732.936132	1.398783	0.724517	7217.916016
8732.937086	1.360946	0.724517	8516.258789
8732.938016	1.114666	0.724517	9552.897461
8732.938881	0.160170	0.724517	9691.444336
8732.939798	0.094827	0.724517	9778.400391
8732.940747	0.094962	0.724517	9868.519531
8732.941670	0.094969	0.724517	9956.176758
8732.942534	0.094948	0.724517	10038.210937
8732.943499	0.094962	0.724517	10129.849609
8732.944447	0.094973	0.724517	10219.883789
8732.945331	0.094999	0.724517	10303.862305
8732.946244	0.094973	0.724517	10390.573242
8732.947179	0.094922	0.724517	10479.325195
8733.971897	1.025614	0.523129	430.757904
8733.972810	1.522731	0.523129	1821.011108
8733.973765	1.516384	0.523129	3269.158203
8733.974695	1.475951	0.523129	4641.792480
8733.975575	1.437682	0.523129	5906.952637
8733.976551	1.397721	0.523129	7271.128418
8733.977468	1.360093	0.523129	8518.333984
8733.978399	1.111128	0.523129	9552.793945
8733.979262	0.158123	0.523129	9689.253906
8733.980240	0.094742	0.523129	9781.912109
8733.981193	0.094951	0.523129	9872.400391
8733.982059	0.094988	0.523129	9954.660156
8733.982969	0.094904	0.523129	10041.022461
8733.983928	0.094988	0.523129	10132.116211
8733.984852	0.095050	0.523129	10219.942383
8733.985722	0.094966	0.523129	10302.562500
8733.986675	0.094958	0.523129	10393.057617
8733.987624	0.094988	0.523129	10483.201172
8734.959109	1.098171	0.709105	543.594849
8734.959991	1.527308	0.709105	1890.680786
8734.960936	1.514868	0.709105	3322.231201
8734.962012	1.468524	0.709105	4902.363281
8734.962945	1.427999	0.709105	6234.686523
8734.963811	1.391429	0.709105	7439.664551
8734.964848	1.350817	0.709105	8840.460937
8734.965885	0.665409	0.709105	9530.490234
8734.966776	0.099239	0.709105	9618.913086
8734.967738	0.094915	0.709105	9710.220703
8734.968792	0.094937	0.709105	9810.284180
8734.969717	0.094907	0.709105	9898.073242
8734.970586	0.094915	0.709105	9980.553711
8734.971659	0.095079	0.709105	10082.574219
8734.972651	0.094918	0.709105	10176.733398
8734.973537	0.095006	0.709105	10260.909180
8734.974504	0.094911	0.709105	10352.688477
8734.975542	0.094969	0.709105	10451.266602
8736.001502	1.083256	0.489477	496.131042
8736.002397	1.526865	0.489477	1862.675537
8736.003329	1.516450	0.489477	3276.007080
8736.004298	1.474750	0.489477	4705.039551
8736.005220	1.435118	0.489477	6028.218750
8736.006090	1.398296	0.489477	7244.736328
8736.007060	1.360906	0.489477	8564.814453
8736.007957	1.068820	0.489477	9523.545898
8736.008883	0.142247	0.489477	9655.266602
8736.009757	0.094856	0.489477	9738.170898
8736.010719	0.095021	0.489477	9829.581055
8736.011676	0.095028	0.489477	9920.522461
8736.012565	0.095076	0.489477	10005.044922
8736.013471	0.095006	0.489477	10091.120117
8736.014426	0.094980	0.489477	10181.826172
8736.015319	0.094940	0.489477	10266.607422
8736.016184	0.094955	0.489477	10348.743164
8736.017150	0.094948	0.489477	10440.462891
8736.983485	1.027485	0.728167	435.653809
8736.984480	1.526356	0.728167	1954.378296
8736.985534	1.508683	0.728167	3544.530029
8736.986432	1.469110	0.728167	4863.791016
8736.987361	1.429248	0.728167	6191.562500
8736.988425	1.385248	0.728167	7665.466309
8736.989380	1.348209	0.728167	8953.005859
8736.990255	0.776279	0.728167	9632.250000
8736.991315	0.098965	0.728167	9737.152344
8736.992331	0.094966	0.728167	9833.637695
8736.993214	0.095054	0.728167	9917.570312
8736.994168	0.095032	0.728167	10008.230469
8736.995212	0.095057	0.728167	10107.470703
8736.996129	0.094951	0.728167	10194.541016
8736.996986	0.094991	0.728167	10275.948242
8736.998059	0.095039	0.728167	10377.924805
8736.999068	0.094980	0.728167	10473.759766
8736.999945	0.094966	0.728167	10557.044922
8738.030012	1.029071	0.484606	435.297058
8738.031033	1.526598	0.484606	1993.953369
8738.032082	1.508947	0.484606	3576.838379
8738.032973	1.468861	0.484606	4885.593750
8738.033869	1.429292	0.484606	6166.239258
8738.034948	1.385453	0.484606	7661.143066
8738.035911	1.347843	0.484606	8959.116211
8738.036785	0.773785	0.484606	9635.404297
8738.037818	0.099291	0.484606	9737.971680
8738.038859	0.094904	0.484606	9836.766602
8738.039747	0.094980	0.484606	9921.109375
8738.040611	0.094988	0.484606	10003.178711
8738.041667	0.095002	0.484606	10103.500977
8738.042619	0.094915	0.484606	10193.859375
8738.043487	0.095021	0.484606	10276.336914
8738.044523	0.095013	0.484606	10374.770508
8738.045542	0.094940	0.484606	10471.514648
8738.046428	0.094937	0.484606	10555.627930
8739.008985	1.067783	0.725717	476.231323
8739.009862	1.524093	0.725717	1812.860962
8739.010881	1.513993	0.725717	3355.619629
8739.011922	1.469074	0.725717	4884.925293
8739.012815	1.430050	0.725717	6161.959961
8739.013686	1.392415	0.725717	7374.752930
8739.014780	1.351044	0.725717	8852.794922
8739.015756	0.761558	0.725717	9596.075195
8739.016619	0.103066	0.725717	9685.021484
8739.017494	0.094915	0.725717	9768.071289
8739.018610	0.095006	0.725717	9874.097656
8739.019503	0.094962	0.725717	9958.898437
8739.020364	0.095010	0.725717	10040.702148
8739.021382	0.095087	0.725717	10137.500000
8739.022356	0.094911	0.725717	10229.943359
8739.023236	0.095021	0.725717	10313.561523
8739.024095	0.095035	0.725717	10395.197266
8739.025180	0.095032	0.725717	10498.306641
8740.057531	1.038809	0.475148	439.416046
8740.058593	1.530718	0.475148	2065.038330
8740.059493	1.512839	0.475148	3426.593750
8740.060370	1.473933	0.475148	4719.232910
8740.061305	1.433925	0.475148	6059.952148
8740.062298	1.392843	0.475148	7443.045410
8740.063217	1.356687	0.475148	8689.840820
8740.064087	1.050278	0.475148	9603.583008
8740.065162	0.116191	0.475148	9728.488281
8740.066042	0.094878	0.475148	9811.980469
8740.066904	0.094962	0.475148	9893.837891
8740.067766	0.095090	0.475148	9975.805664
8740.068819	0.094980	0.475148	10075.820312
8740.069716	0.095013	0.475148	10161.046875
8740.070589	0.094958	0.475148	10243.945312
8740.071569	0.095072	0.475148	10337.116211
8740.072515	0.094922	0.475148	10426.912109
8740.073438	0.094991	0.475148	10514.588867
8741.036475	1.030312	0.686558	438.913086
8741.037415	1.521500	0.686558	1869.123291
8741.038480	1.510561	0.686558	3477.871094
8741.039378	1.470623	0.686558	4798.490234
8741.040249	1.433339	0.686558	6046.928223
8741.041262	1.391224	0.686558	7456.238281
8741.042242	1.353018	0.686558	8782.195312
8741.043125	0.937910	0.686558	9610.370117
8741.044030	0.119506	0.686558	9718.522461
8741.045098	0.094929	0.686558	9819.907227
8741.045979	0.094984	0.686558	9903.587891
8741.046840	0.095013	0.686558	9985.394531
8741.047876	0.095112	0.686558	10083.930664
8741.048840	0.095002	0.686558	10175.512695
8741.049718	0.094988	0.686558	10258.912109
8741.050575	0.095054	0.686558	10340.373047
8741.051669	0.095017	0.686558	10444.321289
8741.052564	0.095032	0.686558	10529.375000
8742.081982	1.042126	0.481754	442.903717
8742.082967	1.527070	0.481754	1947.067993
8742.083876	1.514601	0.481754	3323.840332
8742.084808	1.474325	0.481754	4697.911133
8742.085693	1.435778	0.481754	5968.574219
8742.086652	1.396703	0.481754	7308.012207
8742.087609	1.358914	0.481754	8608.492187
8742.088499	1.087786	0.481754	9576.621094
8742.089389	0.148927	0.481754	9709.166016
8742.090345	0.094918	0.481754	9799.908203
8742.091263	0.095002	0.481754	9887.120117
8742.092123	0.095032	0.481754	9968.847656
8742.093090	0.094958	0.481754	10060.672852
8742.094040	0.095013	0.481754	10150.935547
8742.094907	0.094995	0.481754	10233.295898
8742.095783	0.094988	0.481754	10316.504883
8742.096744	0.094966	0.481754	10407.766602
8742.097693	0.094926	0.481754	10497.850586
8743.067065	1.048806	0.633876	441.547394
8743.068176	1.530692	0.633876	2142.146240
8743.069069	1.510668	0.633876	3491.172363
8743.069932	1.472574	0.633876	4762.003906
8743.071022	1.426212	0.633876	6316.575195
8743.071994	1.386090	0.633876	7663.854492
8743.072868	1.351531	0.633876	8845.092773
8743.073755	0.840747	0.633876	9590.834961
8743.074863	0.100140	0.633876	9701.790039
8743.075740	0.094874	0.633876	9784.995117
8743.076606	0.094904	0.633876	9867.181641
8743.077645	0.095072	0.633876	9965.961914
8743.078618	0.094940	0.633876	10058.338867
8743.079496	0.095006	0.633876	10141.753906
8743.080352	0.095002	0.633876	10223.076172
8743.081461	0.095006	0.633876	10328.437500
8743.082365	0.094944	0.633876	10414.266602
8743.083238	0.094940	0.633876	10497.149414
8744.099290	1.059807	0.505675	483.272034
8744.100177	1.525712	0.505675	1836.578369
8744.101040	1.518834	0.505675	3147.332275
8744.102043	1.476801	0.505675	4628.563477
8744.102974	1.436642	0.505675	5966.077148
8744.103855	1.399369	0.505675	7198.920898
8744.104762	1.363546	0.505675	8435.657227
8744.105693	1.136371	0.505675	9493.618164
8744.106646	0.154417	0.505675	9640.777344
8744.107544	0.094838	0.505675	9725.941406
8744.108451	0.094966	0.505675	9812.075195
8744.109411	0.094918	0.505675	9903.196289
8744.110335	0.094918	0.505675	9990.900391
8744.111194	0.094951	0.505675	10072.463867
8744.112162	0.094933	0.505675	10164.358398
8744.113104	0.094929	0.505675	10253.781250
8744.113986	0.094948	0.505675	10337.525391
8744.114852	0.094889	0.505675	10419.699219
8745.100757	1.057983	0.536097	466.570679
8745.101698	1.524042	0.536097	1900.693970
8745.102657	1.514542	0.536097	3353.140137
8745.103575	1.473732	0.536097	4706.025879
8745.104451	1.436008	0.536097	5963.969238
8745.105383	1.396274	0.536097	7265.296875
8745.106345	1.358536	0.536097	8572.208984
8745.107270	1.066857	0.536097	9559.051758
8745.108142	0.143350	0.536097	9684.052734
8745.109114	0.094856	0.536097	9776.252930
8745.110056	0.094980	0.536097	9865.724609
8745.110945	0.094999	0.536097	9950.178711
8745.111859	0.094958	0.536097	10036.970703
8745.112784	0.094955	0.536097	10124.803711
8745.113705	0.094977	0.536097	10212.277344
8745.114596	0.095010	0.536097	10296.930664
8745.115505	0.094860	0.536097	10383.158203
8745.116452	0.094944	0.536097	10473.070312
8746.112504	1.084816	0.573600	515.287476
8746.113401	1.527466	0.573600	1885.424316
8746.114280	1.517479	0.573600	3219.288574
8746.115193	1.478251	0.573600	4568.931641
8746.116153	1.436957	0.573600	5948.410156
8746.117081	1.397889	0.573600	7245.651367
8746.117956	1.362898	0.573600	8438.187500
8746.118908	1.130863	0.573600	9514.769531
8746.119850	0.152263	0.573600	9658.201172
8746.120782	0.094808	0.573600	9746.562500
8746.121639	0.094852	0.573600	9827.850586
8746.122580	0.094977	0.573600	9917.223633
8746.123527	0.094922	0.573600	10007.114258
8746.124414	0.094969	0.573600	10091.352539
8746.125322	0.094962	0.573600	10177.578125
8746.126251	0.094900	0.573600	10265.740234
8746.127198	0.094937	0.573600	10355.645508
8746.128086	0.094944	0.573600	10439.956055
8747.136448	1.034092	0.451506	441.557220
8747.137313	1.522606	0.451506	1758.611572
8747.138293	1.517109	0.451506	3245.378662
8747.139219	1.476907	0.451506	4612.994141
8747.140107	1.438206	0.451506	5890.120605
8747.141000	1.400500	0.451506	7140.767578
8747.141976	1.361942	0.451506	8470.023437
8747.142917	1.125703	0.451506	9529.310547
8747.143797	0.163499	0.451506	9673.189453
8747.144727	0.094797	0.451506	9761.350586
8747.145659	0.094991	0.451506	9849.882812
8747.146584	0.094991	0.451506	9937.750000
8747.147465	0.094933	0.451506	10021.385742
8747.148419	0.094933	0.451506	10111.952148
8747.149337	0.094926	0.451506	10199.093750
8747.150253	0.094915	0.451506	10286.035156
8747.151114	0.094882	0.451506	10367.728516
8747.152085	0.094944	0.451506	10459.918945
8748.128715	1.037845	0.615575	451.462799
8748.129580	1.522332	0.615575	1768.279541
8748.130632	1.513498	0.615575	3360.479980
8748.131582	1.472205	0.615575	4759.074219
8748.132450	1.434514	0.615575	6004.232422
8748.133381	1.395454	0.615575	7303.400391
8748.134447	1.353761	0.615575	8746.509766
8748.135347	0.941060	0.615575	9593.462891
8748.136219	0.118484	0.615575	9696.781250
8748.137148	0.094907	0.615575	9784.950195
8748.138136	0.094937	0.615575	9878.747070
8748.139035	0.094922	0.615575	9964.082031
8748.139932	0.095017	0.615575	10049.312500
8748.140948	0.095002	0.615575	10145.834961
8748.141850	0.094929	0.615575	10231.460937
8748.142756	0.094937	0.615575	10317.473633
8748.143618	0.094991	0.615575	10399.356445
8748.144664	0.094999	0.615575	10498.725586
8749.172187	1.082856	0.371028	488.368256
8749.173150	1.529370	0.371028	1961.151611
8749.174077	1.514242	0.371028	3364.854004
8749.174942	1.475515	0.371028	4641.174805
8749.175913	1.434770	0.371028	6034.336914
8749.176862	1.395538	0.371028	7358.702637
8749.177758	1.359734	0.371028	8577.024414
8749.178690	1.067787	0.371028	9572.202148
8749.179624	0.133531	0.371028	9696.920898
8749.180546	0.094885	0.371028	9784.405273
8749.181433	0.094955	0.371028	9868.629883
8749.182347	0.094900	0.371028	9955.368164
8749.183303	0.094926	0.371028	10046.117187
8749.184197	0.094948	0.371028	10131.000000
8749.185103	0.094966	0.371028	10217.039062
8749.186057	0.094958	0.371028	10307.629883
8749.186989	0.094977	0.371028	10396.148437
8749.187877	0.094900	0.371028	10480.419922
8750.151161	1.113746	0.655113	532.370789
8750.152062	1.527462	0.655113	1908.614258
8750.152988	1.514971	0.655113	3311.477051
8750.153875	1.476636	0.655113	4621.252930
8750.154788	1.436854	0.655113	5933.100586
8750.155747	1.397230	0.655113	7273.044434
8750.156674	1.360561	0.655113	8534.285156
8750.157544	1.145376	0.655113	9530.762695
8750.158523	0.156361	0.655113	9683.839844
8750.159463	0.094812	0.655113	9772.962891
8750.160319	0.094922	0.655113	9854.215820
8750.161266	0.094827	0.655113	9944.016602
8750.162221	0.094874	0.655113	10034.621094
8750.163136	0.094918	0.655113	10121.471680
8750.164006	0.094937	0.655113	10204.066406
8750.164965	0.094922	0.655113	10295.096680
8750.165914	0.094860	0.655113	10385.118164
8750.166804	0.094955	0.655113	10469.627930
8751.201768	1.056006	0.355060	489.986694
8751.202661	1.526638	0.355060	1853.274536
8751.203612	1.515535	0.355060	3294.547852
8751.204593	1.473098	0.355060	4739.657227
8751.205502	1.433481	0.355060	6042.691895
8751.206384	1.396729	0.355060	7274.606445
8751.207408	1.356965	0.355060	8664.138672
8751.208314	1.012504	0.355060	9581.466797
8751.209187	0.128987	0.355060	9694.072266
8751.210083	0.094962	0.355060	9779.158203
8751.211122	0.095032	0.355060	9877.896484
8751.212009	0.094948	0.355060	9962.115234
8751.212883	0.095013	0.355060	10045.157227
8751.213891	0.094958	0.355060	10140.875000
8751.214808	0.094955	0.355060	10227.948242
8751.215731	0.094988	0.355060	10315.622070
8751.216588	0.094907	0.355060	10396.958008
8751.217611	0.094812	0.355060	10493.951172
8752.179646	1.040233	0.612256	445.219788
8752.180686	1.529198	0.612256	2035.585693
8752.181574	1.513524	0.612256	3379.595215
8752.182452	1.474871	0.612256	4674.531738
8752.183345	1.435353	0.612256	5956.301758
8752.184382	1.393627	0.612256	7401.492676
8752.185283	1.357555	0.612256	8624.649414
8752.186163	1.078923	0.612256	9574.101562
8752.187175	0.132535	0.612256	9708.227539
8752.188093	0.094786	0.612256	9795.241211
8752.189010	0.094962	0.612256	9882.321289
8752.189876	0.094977	0.612256	9964.571289
8752.190912	0.094786	0.612256	10062.769531
8752.191802	0.094878	0.612256	10147.210937
8752.192675	0.094929	0.612256	10230.083984
8752.193665	0.094995	0.612256	10324.128906
8752.194608	0.094962	0.612256	10413.677734
8752.195528	0.094969	0.612256	10501.049805
8753.224155	1.047686	0.363986	479.840027
8753.225103	1.529517	0.363986	1929.821777
8753.226034	1.514476	0.363986	3339.799316
8753.226921	1.475881	0.363986	4648.906250
8753.227855	1.435265	0.363986	5989.443848
8753.228812	1.395795	0.363986	7325.219727
8753.229742	1.358979	0.363986	8589.070312
8753.230609	1.110666	0.363986	9552.017578
8753.231589	0.143712	0.363986	9692.855469
8753.232477	0.094874	0.363986	9777.103516
8753.233400	0.094973	0.363986	9864.763672
8753.234274	0.094973	0.363986	9947.770508
8753.235241	0.094969	0.363986	10039.606445
8753.236186	0.094999	0.363986	10129.379883
8753.237074	0.094966	0.363986	10213.709961
8753.237981	0.095024	0.363986	10299.897461
8753.238941	0.094966	0.363986	10391.064453
8753.239863	0.094900	0.363986	10478.562500
8754.213323	1.041918	0.555291	450.108429
8754.214191	1.522753	0.555291	1771.857666
8754.215123	1.517582	0.555291	3186.243896
8754.216071	1.476445	0.555291	4585.914062
8754.216988	1.437330	0.555291	5903.946289
8754.217863	1.400200	0.555291	7129.121582
8754.218844	1.361913	0.555291	8465.158203
8754.219793	1.124839	0.555291	9532.629883
8754.220694	0.150732	0.555291	9668.439453
8754.221604	0.094933	0.555291	9754.828125
8754.222536	0.095013	0.555291	9843.380859
8754.223459	0.094980	0.555291	9931.047852
8754.224334	0.094955	0.555291	10014.133789
8754.225240	0.095006	0.555291	10100.208984
8754.226192	0.095006	0.555291	10190.655273
8754.227119	0.094966	0.555291	10278.688477
8754.227990	0.095046	0.555291	10361.473633
8754.228952	0.095017	0.555291	10452.879883
8755.240376	1.033231	0.414610	436.023590
8755.241332	1.526070	0.414610	1894.946899
8755.242259	1.515472	0.414610	3299.789795
8755.243151	1.476709	0.414610	4617.014160
8755.244067	1.437437	0.414610	5933.706055
8755.245019	1.398223	0.414610	7264.813965
8755.245949	1.360745	0.414610	8530.306641
8755.246834	1.157373	0.414610	9554.582031
8755.247794	0.144800	0.414610	9693.589844
8755.248730	0.094882	0.414610	9782.399414
8755.249654	0.094988	0.414610	9870.167969
8755.250514	0.095021	0.414610	9951.885742
8755.251472	0.095065	0.414610	10042.958008
8755.252397	0.094991	0.414610	10130.825195
8755.253283	0.095039	0.414610	10215.030273
8755.254199	0.094984	0.414610	10302.036133
8755.255114	0.094915	0.414610	10388.882812
8755.256062	0.094999	0.414610	10478.941406
8756.252108	1.045913	0.469520	454.972198
8756.252985	1.524184	0.469520	1791.681885
8756.253940	1.516545	0.469520	3239.982910
8756.254875	1.476072	0.469520	4620.109863
8756.255754	1.438202	0.469520	5884.289062
8756.256758	1.397267	0.469520	7287.145020
8756.257682	1.359364	0.469520	8543.197266
8756.258611	1.087401	0.469520	9553.392578
8756.259475	0.150864	0.469520	9683.739258
8756.260512	0.094893	0.469520	9782.142578
8756.261397	0.095065	0.469520	9866.274414
8756.262292	0.095028	0.469520	9951.324219
8756.263167	0.095028	0.469520	10034.473633
8756.264147	0.095013	0.469520	10127.586914
8756.265078	0.094988	0.469520	10216.020508
8756.265965	0.095101	0.469520	10300.375000
8756.266888	0.094962	0.469520	10388.025391
8756.267824	0.095024	0.469520	10476.967773
8757.258760	1.076272	0.450926	538.135986
8757.259809	1.531326	0.450926	2144.496582
8757.260748	1.508258	0.450926	3560.750977
8757.261614	1.469392	0.450926	4833.244629
8757.262694	1.423832	0.450926	6370.982910
8757.263705	1.382285	0.450926	7768.473145
8757.264596	1.347499	0.450926	8969.094727
8757.265467	0.744972	0.450926	9617.964844
8757.266549	0.098013	0.450926	9724.014648
8757.267467	0.094933	0.450926	9811.163086
8757.268339	0.094995	0.450926	9893.999023
8757.269307	0.095010	0.450926	9985.968750
8757.270329	0.094940	0.450926	10082.998047
8757.271206	0.094944	0.450926	10166.263672
8757.272071	0.094904	0.450926	10248.355469
8757.273119	0.094911	0.450926	10347.822266
8757.274053	0.094944	0.450926	10436.500000
8757.274928	0.094977	0.450926	10519.604492
