time (s)	coil I (A)	last det (V)	int current (uC)
8164.599754	1.054750	0.822627	460.925629
8164.600644	1.525939	0.822627	1819.011108
8164.601521	1.521325	0.822627	3153.212891
8164.602519	1.478599	0.822627	4628.854492
8164.603453	1.437422	0.822627	5971.406250
8164.604378	1.399138	0.822627	7265.609375
8164.605244	1.091378	0.822627	8210.743164
8164.606282	0.121458	0.822627	8336.816406
8164.607162	0.094958	0.822627	8420.379883
8164.608083	0.095035	0.822627	8507.907227
8164.608940	0.095039	0.822627	8589.355469
8164.609899	0.094944	0.822627	8680.406250
8164.610834	0.094988	0.822627	8769.219727
8164.611709	0.094929	0.822627	8852.283203
8164.612731	0.095021	0.822627	8949.394531
8164.613630	0.095010	0.822627	9034.808594
8164.614548	0.094984	0.822627	9122.003906
8165.584316	1.032524	0.914911	438.822906
8165.585183	1.522028	0.914911	1758.420776
8165.586257	1.514407	0.914911	3384.893555
8165.587145	1.475493	0.914911	4695.131348
8165.588024	1.437543	0.914911	5958.731445
8165.589030	1.396212	0.914911	7363.320801
8165.589978	0.942707	0.914911	8257.007812
8165.590897	0.114265	0.914911	8362.017578
8165.591756	0.094900	0.914911	8443.536133
8165.592793	0.094991	0.914911	8542.041992
8165.593665	0.094966	0.914911	8624.852539
8165.594537	0.095057	0.914911	8707.742187
8165.595482	0.094995	0.914911	8797.512695
8165.596443	0.094969	0.914911	8888.778320
8165.597363	0.094955	0.914911	8976.136719
8165.598241	0.094926	0.914911	9059.481445
8165.599284	0.095006	0.914911	9158.573242
8166.626811	1.098365	0.856360	522.821960
8166.627733	1.529648	0.856360	1933.157715
8166.628624	1.517574	0.856360	3285.316406
8166.629538	1.477749	0.856360	4635.979004
8166.630499	1.436686	0.856360	6016.633789
8166.631430	1.397611	0.856360	7317.809570
8166.632300	1.088123	0.856360	8264.476562
8166.633267	0.131770	0.856360	8391.898437
8166.634194	0.094977	0.856360	8479.942383
8166.635118	0.095054	0.856360	8567.772461
8166.635999	0.095054	0.856360	8651.514648
8166.636907	0.095032	0.856360	8737.803711
8166.637852	0.094980	0.856360	8827.560547
8166.638740	0.094991	0.856360	8911.913086
8166.639649	0.094988	0.856360	8998.256836
8166.640609	0.095046	0.856360	9089.500977
8166.641531	0.094995	0.856360	9177.086914
8167.615930	1.025347	0.890762	433.721619
8167.616903	1.525646	0.890762	1918.174805
8167.617821	1.515956	0.890762	3309.822266
8167.618734	1.476482	0.890762	4657.850098
8167.619615	1.437407	0.890762	5924.206055
8167.620594	1.397333	0.890762	7292.194824
8167.621554	0.992091	0.890762	8244.602539
8167.622445	0.120956	0.890762	8352.374023
8167.623351	0.094900	0.890762	8438.353516
8167.624314	0.095006	0.890762	8529.844727
8167.625232	0.095021	0.890762	8617.074219
8167.626095	0.095068	0.890762	8699.118164
8167.627044	0.095013	0.890762	8789.286133
8167.627966	0.095043	0.890762	8876.915039
8167.628872	0.094958	0.890762	8962.947266
8167.629755	0.095087	0.890762	9046.909180
8167.630706	0.095043	0.890762	9137.294922
8168.646077	1.044170	0.915234	444.816376
8168.647054	1.527660	0.915234	1937.340088
8168.647975	1.516337	0.915234	3333.886230
8168.648851	1.477895	0.915234	4628.522461
8168.649768	1.437964	0.915234	5947.135254
8168.650728	1.398146	0.915234	7289.354980
8168.651660	1.043903	0.915234	8262.272461
8168.652536	0.132352	0.915234	8378.212891
8168.653474	0.094834	0.915234	8467.166992
8168.654420	0.095032	0.915234	8557.067383
8168.655342	0.094940	0.915234	8644.602539
8168.656203	0.094958	0.915234	8726.361328
8168.657162	0.094958	0.915234	8817.426758
8168.658107	0.094951	0.915234	8907.155273
8168.658992	0.095017	0.915234	8991.245117
8168.659891	0.095006	0.915234	9076.655273
8168.660818	0.094944	0.915234	9164.667969
8169.650161	1.076887	0.888985	505.060120
8169.651055	1.526876	0.888985	1870.087402
8169.651932	1.519310	0.888985	3202.522461
8169.652866	1.479456	0.888985	4584.333984
8169.653829	1.437803	0.888985	5968.937988
8169.654737	1.399215	0.888985	7239.425293
8169.655617	1.128992	0.888985	8232.937500
8169.656566	0.143558	0.888985	8369.174805
8169.657500	0.094944	0.888985	8457.852539
8169.658426	0.095101	0.888985	8545.916016
8169.659285	0.094940	0.888985	8627.469727
8169.660254	0.094937	0.888985	8719.462891
8169.661199	0.094999	0.888985	8809.236328
8169.662088	0.095017	0.888985	8893.706055
8169.663007	0.094951	0.888985	8980.965820
8169.663937	0.094911	0.888985	9069.233398
8169.664854	0.094984	0.888985	9156.333984
8170.669512	1.041291	0.865343	450.879211
8170.670383	1.523562	0.865343	1777.901855
8170.671476	1.512946	0.865343	3431.551270
8170.672473	1.469048	0.865343	4896.191895
8170.673376	1.430475	0.865343	6187.910645
8170.674379	1.389009	0.865343	7581.086426
8170.675444	0.596884	0.865343	8216.767578
8170.676336	0.097258	0.865343	8303.522461
8170.677221	0.094962	0.865343	8387.564453
8170.678314	0.095076	0.865343	8491.482422
8170.679279	0.095061	0.865343	8583.216797
8170.680141	0.095054	0.865343	8665.153320
8170.681173	0.095072	0.865343	8763.267578
8170.682199	0.095024	0.865343	8860.762695
8170.683088	0.094999	0.865343	8945.216797
8170.684015	0.095050	0.865343	9033.328125
8170.685088	0.095002	0.865343	9135.265625
8171.682763	1.042009	0.830059	459.526062
8171.683631	1.523848	0.830059	1782.225830
8171.684619	1.516904	0.830059	3280.927246
8171.685632	1.472915	0.830059	4772.990234
8171.686527	1.434390	0.830059	6056.769043
8171.687393	1.397208	0.830059	7266.751465
8171.688485	0.836624	0.830059	8180.344238
8171.689407	0.104191	0.830059	8276.408203
8171.690323	0.094984	0.830059	8363.414062
8171.691188	0.095002	0.830059	8445.590820
8171.692221	0.095024	0.830059	8543.750977
8171.693111	0.094988	0.830059	8628.290039
8171.693985	0.095002	0.830059	8711.322266
8171.694968	0.095010	0.830059	8804.716797
8171.695922	0.095010	0.830059	8895.356445
8171.696836	0.094969	0.830059	8982.158203
8171.697697	0.095002	0.830059	9063.955078
8172.688863	1.047275	0.813591	481.746704
8172.689807	1.528293	0.813591	1924.455811
8172.690731	1.516219	0.813591	3325.442627
8172.691603	1.477720	0.813591	4614.014160
8172.692519	1.437781	0.813591	5931.021484
8172.693478	1.398094	0.813591	7271.793945
8172.694407	1.050776	0.813591	8247.964844
8172.695281	0.133887	0.813591	8364.981445
8172.696251	0.094962	0.813591	8457.094727
8172.697191	0.094969	0.813591	8546.366211
8172.698083	0.095024	0.813591	8631.127930
8172.698965	0.094977	0.813591	8714.897461
8172.699918	0.094940	0.813591	8805.375000
8172.700843	0.095010	0.813591	8893.258789
8172.701700	0.094969	0.813591	8974.647461
8172.702638	0.094951	0.813591	9063.711914
8172.703585	0.094951	0.813591	9153.630859
8173.715389	1.038007	0.774790	442.190796
8173.716376	1.528418	0.774790	1950.739258
8173.717304	1.515875	0.774790	3357.471436
8173.718192	1.476705	0.774790	4668.785645
8173.719089	1.438444	0.774790	5959.069336
8173.720022	1.398457	0.774790	7263.829590
8173.720990	1.020425	0.774790	8251.600586
8173.721865	0.129957	0.774790	8365.313477
8173.722802	0.094911	0.774790	8454.245117
8173.723735	0.095017	0.774790	8542.896484
8173.724657	0.095035	0.774790	8630.519531
8173.725535	0.095013	0.774790	8713.941406
8173.726478	0.095050	0.774790	8803.573242
8173.727410	0.094999	0.774790	8892.112305
8173.728312	0.095028	0.774790	8977.827148
8173.729173	0.094896	0.774790	9059.533203
8173.730141	0.094988	0.774790	9151.481445
8174.710816	1.111252	0.830756	566.738708
8174.711846	1.532552	0.830756	2145.267822
8174.712726	1.511927	0.830756	3475.764160
8174.713666	1.470619	0.830756	4858.145996
8174.714736	1.425048	0.830756	6382.946777
8174.715669	1.386354	0.830756	7676.415039
8174.716535	0.739541	0.830756	8316.857422
8174.717569	0.098434	0.830756	8418.637695
8174.718589	0.095024	0.830756	8515.562500
8174.719474	0.095010	0.830756	8599.646484
8174.720437	0.095131	0.830756	8691.256836
8174.721495	0.095039	0.830756	8791.808594
8174.722419	0.095010	0.830756	8879.597656
8174.723285	0.095043	0.830756	8961.904297
8174.724357	0.095021	0.830756	9063.766602
8174.725351	0.094984	0.830756	9158.180664
8174.726243	0.094980	0.830756	9242.903320
8175.749566	1.035275	0.694317	438.956482
8175.750440	1.523877	0.694317	1770.824951
8175.751304	1.520830	0.694317	3084.822266
8175.752304	1.479357	0.694317	4564.179199
8175.753233	1.439213	0.694317	5901.208008
8175.754118	1.402467	0.694317	7142.391602
8175.755077	1.123191	0.694317	8219.531250
8175.756025	0.144598	0.694317	8356.610352
8175.756945	0.094885	0.694317	8443.904297
8175.757806	0.095013	0.694317	8525.710937
8175.758718	0.095013	0.694317	8612.363281
8175.759666	0.095061	0.694317	8702.481445
8175.760589	0.095013	0.694317	8790.178711
8175.761458	0.095046	0.694317	8872.774414
8175.762425	0.095120	0.694317	8964.754883
8175.763351	0.094977	0.694317	9052.703125
8175.764212	0.095010	0.694317	9134.506836
8176.733676	1.080828	0.869931	511.231445
8176.734552	1.526433	0.869931	1848.386841
8176.735468	1.517823	0.869931	3238.713135
8176.736413	1.476852	0.869931	4634.337891
8176.737340	1.437382	0.869931	5966.790527
8176.738220	1.400098	0.869931	7198.876465
8176.739190	1.071654	0.869931	8238.380859
8176.740120	0.127075	0.869931	8356.560547
8176.740999	0.094988	0.869931	8440.054687
8176.742014	0.094988	0.869931	8536.467773
8176.742958	0.094977	0.869931	8626.125977
8176.743886	0.095021	0.869931	8714.305664
8176.744748	0.094995	0.869931	8796.191406
8176.745715	0.094991	0.869931	8888.047852
8176.746672	0.094951	0.869931	8978.916016
8176.747539	0.094958	0.869931	9061.245117
8176.748449	0.094955	0.869931	9147.654297
8177.782752	1.082190	0.628611	494.560791
8177.783640	1.527272	0.628611	1850.778076
8177.784511	1.519431	0.628611	3174.202637
8177.785508	1.477460	0.628611	4647.229980
8177.786446	1.437169	0.628611	5995.294922
8177.787324	1.400288	0.628611	7224.748047
8177.788236	1.112314	0.628611	8239.178711
8177.789211	0.136619	0.628611	8372.381836
8177.790130	0.094937	0.628611	8459.628906
8177.790993	0.094988	0.628611	8541.603516
8177.791930	0.094955	0.628611	8630.576172
8177.792859	0.094827	0.628611	8718.669922
8177.793779	0.094944	0.628611	8806.018555
8177.794657	0.094929	0.628611	8889.366211
8177.795625	0.094948	0.628611	8981.275391
8177.796545	0.094984	0.628611	9068.661133
8177.797419	0.095024	0.628611	9151.712891
8178.757136	1.103668	0.923867	552.937744
8178.758153	1.532201	0.923867	2111.186035
8178.759044	1.512323	0.923867	3458.666016
8178.760005	1.470634	0.923867	4871.944824
8178.761069	1.424670	0.923867	6387.793945
8178.761997	1.386178	0.923867	7674.166992
8178.762867	0.730283	0.923867	8309.513672
8178.763944	0.097471	0.923867	8414.489258
8178.764929	0.094929	0.923867	8507.994141
8178.765819	0.094980	0.923867	8592.526367
8178.766807	0.094940	0.923867	8686.327148
8178.767849	0.094973	0.923867	8785.289062
8178.768749	0.094951	0.923867	8870.745117
8178.769606	0.094980	0.923867	8952.143555
8178.770676	0.095039	0.923867	9053.834961
8178.771667	0.094900	0.923867	9147.880859
8178.772548	0.094958	0.923867	9231.539062
8179.813819	1.046646	0.597246	443.777710
8179.814876	1.532274	0.597246	2063.391602
8179.815764	1.514773	0.597246	3408.509766
8179.816634	1.476482	0.597246	4693.048828
8179.817623	1.434078	0.597246	6111.352539
8179.818550	1.394711	0.597246	7404.249023
8179.819474	0.955488	0.597246	8287.120117
8179.820355	0.117656	0.597246	8390.775391
8179.821382	0.094926	0.597246	8488.263672
8179.822273	0.095028	0.597246	8572.933594
8179.823193	0.095043	0.597246	8660.373047
8179.824058	0.095017	0.597246	8742.562500
8179.825059	0.095028	0.597246	8837.685547
8179.825984	0.095054	0.597246	8925.610352
8179.826848	0.095021	0.597246	9007.708008
8179.827896	0.094977	0.597246	9107.244141
8179.828769	0.095013	0.597246	9190.190430
8180.780522	1.055424	0.965358	488.661133
8180.781418	1.525983	0.965358	1855.941528
8180.782358	1.517629	0.965358	3282.513184
8180.783280	1.475632	0.965358	4643.045898
8180.784199	1.436217	0.965358	5962.929687
8180.785081	1.398757	0.965358	7196.633789
8180.786070	1.010793	0.965358	8196.308594
8180.787028	0.119348	0.965358	8310.644531
8180.787923	0.094926	0.965358	8395.602539
8180.788832	0.095021	0.965358	8481.976562
8180.789790	0.094980	0.965358	8572.967773
8180.790707	0.094995	0.965358	8660.078125
8180.791570	0.094966	0.965358	8742.033203
8180.792521	0.094977	0.965358	8832.356445
8180.793444	0.094999	0.965358	8920.040039
8180.794343	0.094955	0.965358	9005.404297
8180.795217	0.095043	0.965358	9088.471680
8181.843476	1.095223	0.586668	564.040039
8181.844500	1.533658	0.586668	2134.506348
8181.845398	1.511847	0.586668	3492.145020
8181.846270	1.472651	0.586668	4776.296875
8181.847343	1.427516	0.586668	6308.021484
8181.848292	1.388207	0.586668	7625.429687
8181.849174	0.779169	0.586668	8312.656250
8181.850117	0.104326	0.586668	8411.036133
8181.851141	0.094929	0.586668	8508.243164
8181.852030	0.094980	0.586668	8592.680664
8181.852901	0.095024	0.586668	8675.447266
8181.853861	0.095039	0.586668	8766.684570
8181.854840	0.095017	0.586668	8859.706055
8181.855746	0.094988	0.586668	8945.764648
8181.856614	0.094969	0.586668	9028.198242
8181.857635	0.094999	0.586668	9125.192383
8181.858540	0.094984	0.586668	9211.153320
8182.808521	1.036377	0.953898	450.823975
8182.809384	1.522335	0.953898	1764.599365
8182.810426	1.515344	0.953898	3343.588135
8182.811395	1.473223	0.953898	4771.140625
8182.812264	1.435272	0.953898	6018.392090
8182.813152	1.396952	0.953898	7258.885254
8182.814243	0.852041	0.953898	8188.461914
8182.815143	0.106498	0.953898	8284.309570
8182.816006	0.094915	0.953898	8366.220703
8182.817036	0.094999	0.953898	8464.069336
8182.818007	0.094951	0.953898	8556.266602
8182.818886	0.094929	0.953898	8639.708984
8182.819748	0.095010	0.953898	8721.607422
8182.820864	0.095021	0.953898	8827.650391
8182.821752	0.094977	0.953898	8911.990234
8182.822622	0.095010	0.953898	8994.648437
8182.823739	0.095028	0.953898	9100.794922
8183.870434	1.059624	0.588714	488.486694
8183.871326	1.527891	0.588714	1851.365112
8183.872247	1.518600	0.588714	3249.995605
8183.873212	1.477244	0.588714	4675.535645
8183.874129	1.436869	0.588714	5993.144531
8183.875023	1.399460	0.588714	7244.262207
8183.876043	0.944377	0.588714	8207.527344
8183.877089	0.106263	0.588714	8318.678711
8183.878034	0.094944	0.588714	8408.400391
8183.878903	0.094995	0.588714	8490.951172
8183.879950	0.095043	0.588714	8590.460937
8183.880960	0.094991	0.588714	8686.402344
8183.881837	0.095057	0.588714	8769.767578
8183.882795	0.095079	0.588714	8860.853516
8183.883842	0.095054	0.588714	8960.375000
8183.884772	0.095024	0.588714	9048.748047
8183.885628	0.095046	0.588714	9130.107422
8184.839108	1.044943	0.917236	450.370270
8184.839982	1.523441	0.917236	1781.857788
8184.840928	1.518545	0.917236	3218.401367
8184.841885	1.477511	0.917236	4632.379395
8184.842816	1.437140	0.917236	5970.356445
8184.843682	1.400625	0.917236	7183.297852
8184.844651	1.084874	0.917236	8234.541016
8184.845609	0.131792	0.917236	8360.797852
8184.846501	0.094966	0.917236	8445.507812
8184.847360	0.095035	0.917236	8527.143555
8184.848327	0.095072	0.917236	8619.078125
8184.849263	0.095050	0.917236	8708.044922
8184.850147	0.095013	0.917236	8792.037109
8184.851056	0.095002	0.917236	8878.394531
8184.852006	0.095010	0.917236	8968.654297
8184.852927	0.095032	0.917236	9056.178711
8184.853803	0.095050	0.917236	9139.442383
8185.893324	1.060265	0.613835	467.576782
8185.894202	1.525514	0.613835	1806.978027
8185.895118	1.519351	0.613835	3198.703125
8185.896086	1.478068	0.613835	4629.472656
8185.896985	1.439055	0.613835	5923.183105
8185.897903	1.400706	0.613835	7209.030762
8185.898864	1.077653	0.613835	8244.655273
8185.899809	0.133931	0.613835	8371.219727
8185.900698	0.094904	0.613835	8455.588867
8185.901589	0.094922	0.613835	8540.164062
8185.902505	0.094995	0.613835	8627.179687
8185.903424	0.094962	0.613835	8714.450195
8185.904301	0.095021	0.613835	8797.783203
8185.905268	0.094980	0.613835	8889.628906
8185.906220	0.094951	0.613835	8980.022461
8185.907109	0.094977	0.613835	9064.457031
8185.908021	0.094977	0.613835	9151.076172
8186.873793	1.032799	0.842019	441.005188
8186.874712	1.523079	0.842019	1840.714355
8186.875693	1.516491	0.842019	3328.391602
8186.876620	1.475621	0.842019	4696.292480
8186.877487	1.437667	0.842019	5942.750000
8186.878446	1.398032	0.842019	7283.462891
8186.879383	1.007812	0.842019	8227.783203
8186.880306	0.124545	0.842019	8342.738281
8186.881164	0.094863	0.842019	8424.130859
8186.882118	0.094933	0.842019	8514.697266
8186.883064	0.095002	0.842019	8604.569336
8186.883947	0.094948	0.842019	8688.408203
8186.884860	0.095013	0.842019	8775.155273
8186.885799	0.094940	0.842019	8864.303711
8186.886738	0.094984	0.842019	8953.494141
8186.887632	0.095043	0.842019	9038.461914
8186.888571	0.095024	0.842019	9127.689453
8187.912636	1.027994	0.658171	433.813629
8187.913673	1.528993	0.658171	2019.379272
8187.914567	1.514520	0.658171	3373.360352
8187.915495	1.474735	0.658171	4741.914551
8187.916361	1.435184	0.658171	5984.784180
8187.917399	1.393345	0.658171	7431.076172
8187.918300	0.940353	0.658171	8278.333984
8187.919180	0.116052	0.658171	8380.459961
8187.920173	0.094962	0.658171	8474.757812
8187.921104	0.094973	0.658171	8563.177734
8187.922018	0.094937	0.658171	8649.950195
8187.922882	0.095010	0.658171	8732.039062
8187.923921	0.094984	0.658171	8830.727539
8187.924802	0.094907	0.658171	8914.340820
8187.925676	0.094955	0.658171	8997.331055
8187.926643	0.094999	0.658171	9089.195312
8187.927602	0.094980	0.658171	9180.281250
8188.909493	1.040482	0.760788	435.962036
8188.910550	1.530974	0.760788	2054.201660
8188.911441	1.514275	0.760788	3403.420410
8188.912314	1.475709	0.760788	4691.714844
8188.913297	1.433957	0.760788	6101.294922
8188.914233	1.394257	0.760788	7406.319336
8188.915152	0.956437	0.760788	8285.285156
8188.916033	0.117766	0.760788	8389.037109
8188.917067	0.094940	0.760788	8487.205078
8188.917951	0.095072	0.760788	8571.249023
8188.918827	0.094951	0.760788	8654.425781
8188.919755	0.095094	0.760788	8742.672852
8188.920752	0.094995	0.760788	8837.382812
8188.921673	0.094980	0.760788	8924.859375
8188.922549	0.095021	0.760788	9008.097656
8188.923416	0.094940	0.760788	9090.411133
8188.924385	0.095006	0.760788	9182.471680
8189.932479	1.033872	0.697201	440.429474
8189.933542	1.530198	0.697201	2067.029785
8189.934428	1.514399	0.697201	3408.787598
8189.935301	1.475515	0.697201	4696.912109
8189.936196	1.435664	0.697201	5981.831543
8189.937244	1.393034	0.697201	7441.730469
8189.938150	0.927235	0.697201	8281.805664
8189.939026	0.115005	0.697201	8382.549805
8189.940009	0.094893	0.697201	8475.829102
8189.940929	0.094951	0.697201	8563.184570
8189.941853	0.094980	0.697201	8650.946289
8189.942720	0.094995	0.697201	8733.306641
8189.943751	0.094951	0.697201	8831.201172
8189.944628	0.094940	0.697201	8914.463867
8189.945545	0.094955	0.697201	9001.537109
8189.946407	0.095017	0.697201	9083.441406
8189.947375	0.094955	0.697201	9175.357422
8190.944203	1.058771	0.696846	461.624054
8190.945116	1.526883	0.696846	1855.668701
8190.945998	1.518497	0.696846	3194.983398
8190.947030	1.474801	0.696846	4716.978027
8190.947919	1.436298	0.696846	5993.846680
8190.948800	1.399662	0.696846	7226.948730
8190.949780	1.016646	0.696846	8223.261719
8190.950727	0.120410	0.696846	8337.290039
8190.951649	0.094860	0.696846	8424.750977
8190.952508	0.094918	0.696846	8506.286133
8190.953538	0.094922	0.696846	8604.055664
8190.954416	0.094955	0.696846	8687.425781
8190.955313	0.094958	0.696846	8772.603516
8190.956195	0.094929	0.696846	8856.331055
8190.957150	0.094977	0.696846	8947.034180
8190.958078	0.094948	0.696846	9035.145508
8190.958956	0.094977	0.696846	9118.535156
8191.953418	1.097373	0.729444	545.394409
8191.954299	1.528359	0.729444	1891.878906
8191.955227	1.515853	0.729444	3298.590820
8191.956334	1.468663	0.729444	4924.401367
8191.957275	1.428040	0.729444	6268.186523
8191.958141	1.391309	0.729444	7473.059570
8191.959175	0.709336	0.729444	8206.512695
8191.960194	0.097229	0.729444	8305.588867
8191.961080	0.094955	0.729444	8389.718750
8191.962043	0.095013	0.729444	8481.216797
8191.963085	0.094988	0.729444	8580.194336
8191.964023	0.094999	0.729444	8669.302734
8191.964887	0.094962	0.729444	8751.349609
8191.965955	0.095028	0.729444	8852.839844
8191.966943	0.095021	0.729444	8946.720703
8191.967838	0.094999	0.729444	9031.744141
8191.968808	0.095021	0.729444	9123.914062
8192.978871	1.023889	0.683263	431.057343
8192.979769	1.522493	0.683263	1798.255859
8192.980746	1.516827	0.683263	3280.196289
8192.981672	1.476636	0.683263	4647.561035
8192.982548	1.438920	0.683263	5908.054687
8192.983504	1.399361	0.683263	7245.844238
8192.984462	1.043020	0.683263	8245.057617
8192.985387	0.126903	0.683263	8362.443359
8192.986245	0.094937	0.683263	8443.898437
8192.987182	0.094940	0.683263	8532.857422
8192.988116	0.094962	0.683263	8621.551758
8192.989040	0.094969	0.683263	8709.303711
8192.989902	0.094991	0.683263	8791.186523
8192.990867	0.094991	0.683263	8882.853516
8192.991807	0.094944	0.683263	8972.100586
8192.992703	0.094937	0.683263	9057.164062
8192.993611	0.094940	0.683263	9143.370117
8193.976253	1.026405	0.781792	434.169312
8193.977223	1.525594	0.781792	1913.995972
8193.978159	1.515414	0.781792	3332.423340
8193.979066	1.475435	0.781792	4670.642578
8193.979949	1.436653	0.781792	5939.207031
8193.980928	1.396721	0.781792	7306.597168
8193.981894	0.970499	0.781792	8244.099609
8193.982787	0.117642	0.781792	8349.153320
8193.983704	0.094904	0.781792	8436.179687
8193.984668	0.095035	0.781792	8527.793945
8193.985591	0.095043	0.781792	8615.518555
8193.986460	0.095021	0.781792	8698.091797
8193.987394	0.094991	0.781792	8786.813477
8193.988342	0.094962	0.781792	8876.837891
8193.989225	0.094948	0.781792	8960.676758
8193.990331	0.094951	0.781792	9065.692383
8193.991268	0.094937	0.781792	9154.647461
8195.011005	1.034227	0.669373	442.649261
8195.012015	1.527891	0.669373	1985.818726
8195.013063	1.509767	0.669373	3568.054199
8195.013956	1.469820	0.669373	4880.604004
8195.014870	1.430145	0.669373	6187.756836
8195.015949	1.385940	0.669373	7683.186035
8195.016898	0.628652	0.669373	8279.777344
8195.017764	0.098969	0.669373	8365.484375
8195.018809	0.095123	0.669373	8464.888672
8195.019836	0.095006	0.669373	8562.459961
8195.020731	0.095039	0.669373	8647.519531
8195.021591	0.094977	0.669373	8729.199219
8195.022646	0.095024	0.669373	8829.450195
8195.023591	0.095024	0.669373	8919.248047
8195.024464	0.094951	0.669373	9002.140625
8195.025404	0.094980	0.669373	9091.421875
8195.026449	0.095017	0.669373	9190.714844
8196.001210	1.038109	0.809680	438.082062
8196.002303	1.530198	0.809680	2110.588135
8196.003294	1.507980	0.809680	3604.996094
8196.004186	1.468923	0.809680	4915.275879
8196.005048	1.430358	0.809680	6148.244141
8196.006149	1.387112	0.809680	7675.454102
8196.007038	0.719425	0.809680	8315.023437
8196.007910	0.101521	0.809680	8403.549805
8196.008891	0.094944	0.809680	8496.689453
8196.009888	0.095017	0.809680	8591.421875
8196.010775	0.095006	0.809680	8675.692383
8196.011635	0.095021	0.809680	8757.410156
8196.012725	0.095101	0.809680	8861.070312
8196.013644	0.095024	0.809680	8948.397461
8196.014521	0.094999	0.809680	9031.710937
8196.015477	0.095002	0.809680	9122.533203
8196.016474	0.095087	0.809680	9217.334961
8197.041713	1.137689	0.620917	621.178345
8197.042773	1.533406	0.620917	2246.588379
8197.043680	1.508331	0.620917	3614.645020
8197.044547	1.468004	0.620917	4887.404297
8197.045651	1.422883	0.620917	6458.267578
8197.046622	1.383109	0.620917	7801.266602
8197.047492	0.618582	0.620917	8339.432617
8197.048531	0.097119	0.620917	8440.339844
8197.049561	0.095072	0.620917	8538.263672
8197.050440	0.094980	0.620917	8621.751953
8197.051357	0.094991	0.620917	8708.859375
8197.052427	0.095061	0.620917	8810.574219
8197.053369	0.095010	0.620917	8900.073242
8197.054226	0.094999	0.620917	8981.487305
8197.055242	0.095017	0.620917	9078.024414
8197.056272	0.095013	0.620917	9175.888672
8197.057161	0.095006	0.620917	9260.348633
8198.027710	1.036344	0.848871	444.591583
8198.028576	1.522551	0.848871	1763.120850
8198.029641	1.514220	0.848871	3375.765137
8198.030536	1.475083	0.848871	4695.964355
8198.031417	1.436942	0.848871	5961.910156
8198.032388	1.397205	0.848871	7318.595703
8198.033347	0.970880	0.848871	8249.669922
8198.034270	0.117286	0.848871	8357.924805
8198.035135	0.094918	0.848871	8440.029297
8198.036176	0.094977	0.848871	8538.900391
8198.037060	0.094988	0.848871	8622.869141
8198.037925	0.094915	0.848871	8704.970703
8198.038833	0.095050	0.848871	8791.276367
8198.039833	0.094980	0.848871	8886.256836
8198.040742	0.094995	0.848871	8972.607422
8198.041620	0.095039	0.848871	9056.051758
8198.042495	0.094999	0.848871	9139.175781
8199.069199	1.067377	0.609787	543.294739
8199.070104	1.530289	0.609787	1928.206543
8199.071014	1.515747	0.609787	3307.536377
8199.071904	1.477112	0.609787	4622.166016
8199.072860	1.435726	0.609787	5994.720215
8199.073787	1.397102	0.609787	7289.833984
8199.074718	1.026277	0.609787	8245.297852
8199.075581	0.130261	0.609787	8357.712891
8199.076551	0.094988	0.609787	8449.850586
8199.077491	0.094980	0.609787	8539.131836
8199.078382	0.094991	0.609787	8623.769531
8199.079242	0.094951	0.609787	8705.427734
8199.080209	0.094962	0.609787	8797.255859
8199.081139	0.094962	0.609787	8885.570312
8199.082033	0.094999	0.609787	8970.499023
8199.082945	0.095043	0.609787	9057.177734
8199.083899	0.095013	0.609787	9147.820312
8200.055237	1.036849	0.835602	444.808380
8200.056160	1.523075	0.835602	1850.606567
8200.057121	1.517018	0.835602	3308.460693
8200.058049	1.476233	0.835602	4678.404785
8200.058916	1.438301	0.835602	5925.411621
8200.059880	1.397289	0.835602	7272.397949
8200.060830	0.989022	0.835602	8211.968750
8200.061761	0.119637	0.835602	8323.351562
8200.062648	0.094969	0.835602	8407.589844
8200.063609	0.095046	0.835602	8498.929687
8200.064554	0.095043	0.835602	8588.745117
8200.065435	0.095028	0.835602	8672.464844
8200.066318	0.095032	0.835602	8756.377930
8200.067260	0.095043	0.835602	8845.908203
8200.068198	0.095035	0.835602	8935.051758
8200.069059	0.094980	0.835602	9016.830078
8200.070023	0.095076	0.835602	9108.483398
8201.096682	1.087896	0.589854	515.662476
8201.097651	1.530601	0.589854	1998.814453
8201.098596	1.513759	0.589854	3429.316406
8201.099467	1.474684	0.589854	4713.766113
8201.100444	1.433734	0.589854	6114.524414
8201.101405	1.394121	0.589854	7454.274902
8201.102301	0.945055	0.589854	8301.043945
8201.103222	0.117891	0.589854	8409.621094
8201.104139	0.094904	0.589854	8496.647461
8201.105091	0.094991	0.589854	8587.079102
8201.105982	0.095032	0.589854	8671.751953
8201.106890	0.095006	0.589854	8758.017578
8201.107850	0.094999	0.589854	8849.216797
8201.108760	0.094940	0.589854	8935.612305
8201.109628	0.094958	0.589854	9018.036133
8201.110590	0.094973	0.589854	9109.400391
8201.111537	0.095032	0.589854	9199.395508
8202.082765	1.043921	0.820363	453.061646
8202.083650	1.524635	0.820363	1802.363525
8202.084517	1.520907	0.820363	3120.989990
8202.085593	1.475167	0.820363	4708.270020
8202.086508	1.435225	0.820363	6021.500488
8202.087425	1.396699	0.820363	7302.273437
8202.088316	1.064795	0.820363	8251.005859
8202.089274	0.131528	0.820363	8377.009766
8202.090218	0.094958	0.820363	8466.650391
8202.091103	0.095054	0.820363	8550.772461
8202.092026	0.095032	0.820363	8638.486328
8202.092966	0.094973	0.820363	8727.760742
8202.093885	0.095054	0.820363	8815.115234
8202.094770	0.094995	0.820363	8899.185547
8202.095720	0.095072	0.820363	8989.503906
8202.096643	0.095006	0.820363	9077.194336
8202.097555	0.094969	0.820363	9163.806641
8203.122629	1.047982	0.609098	453.776306
8203.123509	1.525269	0.609098	1796.012695
8203.124377	1.521588	0.609098	3116.750977
8203.125398	1.478734	0.609098	4626.538574
8203.126313	1.438070	0.609098	5942.372559
8203.127234	1.399929	0.609098	7231.707031
8203.128098	1.100156	0.609098	8182.242187
8203.129129	0.123816	0.609098	8309.896484
8203.130023	0.094907	0.609098	8394.743164
8203.130899	0.095006	0.609098	8477.968750
8203.131867	0.095123	0.609098	8570.047852
8203.132818	0.095050	0.609098	8660.440430
8203.133739	0.095061	0.609098	8747.991211
8203.134604	0.095138	0.609098	8830.285156
8203.135632	0.095021	0.609098	8927.966797
8203.136522	0.095054	0.609098	9012.564453
8203.137398	0.095028	0.609098	9095.808594
8204.110264	1.029075	0.830087	432.211426
8204.111308	1.528594	0.830087	2028.063354
8204.112329	1.509111	0.830087	3568.866211
8204.113211	1.470048	0.830087	4865.448242
8204.114176	1.429230	0.830087	6244.654785
8204.115228	1.385691	0.830087	7702.401367
8204.116153	0.643821	0.830087	8297.935547
8204.117010	0.099716	0.830087	8383.391602
8204.118067	0.094969	0.830087	8483.774414
8204.119072	0.095035	0.830087	8579.285156
8204.119944	0.095061	0.830087	8662.178711
8204.120810	0.095061	0.830087	8744.501953
8204.121896	0.095065	0.830087	8847.742187
8204.122813	0.094995	0.830087	8934.852539
8204.123691	0.095076	0.830087	9018.329102
8204.124672	0.095094	0.830087	9111.616211
8204.125681	0.095021	0.830087	9207.492187
8205.148686	1.071482	0.589633	544.312805
8205.149590	1.530656	0.589633	1928.025391
8205.150509	1.516219	0.589633	3321.431152
8205.151382	1.477738	0.589633	4611.496582
8205.152362	1.435492	0.589633	6018.278809
8205.153286	1.397014	0.589633	7309.120117
8205.154165	1.069146	0.589633	8248.899414
8205.155169	0.135084	0.589633	8384.524414
8205.156056	0.094944	0.589633	8468.739258
8205.156971	0.094980	0.589633	8555.646484
8205.157856	0.095002	0.589633	8639.723633
8205.158801	0.095046	0.589633	8729.541992
8205.159729	0.095068	0.589633	8817.765625
8205.160649	0.094995	0.589633	8905.161133
8205.161524	0.095039	0.589633	8988.320312
8205.162478	0.095002	0.589633	9078.953125
8205.163407	0.095087	0.589633	9167.289062
8206.139885	1.064974	0.767121	509.057770
8206.140849	1.529451	0.767121	1983.448120
8206.141785	1.513466	0.767121	3400.051758
8206.142665	1.474819	0.767121	4697.892578
8206.143599	1.434686	0.767121	6037.889648
8206.144541	1.394960	0.767121	7351.941406
8206.145476	0.975553	0.767121	8264.083984
8206.146340	0.122102	0.767121	8369.580078
8206.147310	0.094812	0.767121	8461.547852
8206.148259	0.095002	0.767121	8551.705078
8206.149151	0.095002	0.767121	8636.447266
8206.150088	0.095054	0.767121	8725.512695
8206.151155	0.095002	0.767121	8826.879883
8206.152152	0.095021	0.767121	8921.615234
8206.153022	0.094980	0.767121	9004.248047
8206.153997	0.095076	0.767121	9096.947266
8206.155046	0.095017	0.767121	9196.620117
8207.170027	1.080853	0.616695	512.324463
8207.170958	1.529707	0.616695	1936.481689
8207.171881	1.515857	0.616695	3335.617676
8207.172766	1.476390	0.616695	4642.223145
8207.173739	1.435111	0.616695	6038.586426
8207.174703	1.395648	0.616695	7383.991211
8207.175612	0.986459	0.616695	8280.682617
8207.176523	0.123615	0.616695	8393.295898
8207.177453	0.094900	0.616695	8481.552734
8207.178388	0.094889	0.616695	8570.273437
8207.179264	0.094973	0.616695	8653.469727
8207.180168	0.094944	0.616695	8739.298828
8207.181121	0.094966	0.616695	8829.800781
8207.182046	0.094969	0.616695	8917.647461
8207.182922	0.095072	0.616695	9000.930664
8207.183971	0.095076	0.616695	9100.665039
8207.185023	0.095021	0.616695	9200.626953
8208.170447	1.039706	0.704508	459.549988
8208.171332	1.525327	0.704508	1809.464600
8208.172223	1.519677	0.704508	3163.496582
8208.173183	1.477961	0.704508	4582.339844
8208.174155	1.436587	0.704508	5978.702148
8208.175037	1.399581	0.704508	7213.132812
8208.175952	1.079590	0.704508	8200.957031
8208.176909	0.134744	0.704508	8329.906250
8208.177834	0.094911	0.704508	8417.699219
8208.178708	0.094951	0.704508	8500.686523
8208.179665	0.094929	0.704508	8591.534180
8208.180585	0.094904	0.704508	8678.845703
8208.181501	0.094995	0.704508	8765.861328
8208.182361	0.095002	0.704508	8847.563477
8208.183331	0.094940	0.704508	8939.655273
8208.184282	0.094929	0.704508	9029.932617
8208.185167	0.094955	0.704508	9113.967773
8209.189861	1.091916	0.624172	505.557312
8209.190781	1.528986	0.624172	1912.224121
8209.191704	1.516879	0.624172	3312.303223
8209.192567	1.478123	0.624172	4587.922852
8209.193536	1.437396	0.624172	5980.759766
8209.194498	1.397622	0.624172	7325.272461
8209.195391	1.063949	0.624172	8275.378906
8209.196310	0.138622	0.624172	8402.772461
8209.197240	0.094882	0.624172	8491.012695
8209.198176	0.094969	0.624172	8579.904297
8209.199053	0.094995	0.624172	8663.214844
8209.199956	0.095013	0.624172	8749.011719
8209.200908	0.094966	0.624172	8839.418945
8209.201830	0.095021	0.624172	8927.028320
8209.202703	0.095017	0.624172	9009.978516
8209.203764	0.094973	0.624172	9110.745117
8209.204816	0.095061	0.624172	9210.749023
8210.202599	1.092407	0.623902	510.154175
8210.203529	1.529301	0.623902	1932.403687
8210.204409	1.517900	0.623902	3268.156006
8210.205327	1.477537	0.623902	4624.534668
8210.206300	1.436162	0.623902	6021.920410
8210.207220	1.397681	0.623902	7307.786621
8210.208089	1.091840	0.623902	8256.595703
8210.209054	0.134066	0.623902	8385.969727
8210.209961	0.094944	0.623902	8472.083984
8210.210865	0.094969	0.623902	8557.936523
8210.211741	0.094991	0.623902	8641.149414
8210.212715	0.094955	0.623902	8733.635742
8210.213661	0.094973	0.623902	8823.480469
8210.214555	0.094955	0.623902	8908.370117
8210.215463	0.094980	0.623902	8994.612305
8210.216423	0.095010	0.623902	9085.821289
8210.217348	0.095032	0.623902	9173.725586
8211.206610	1.052402	0.650050	463.057037
8211.207490	1.525488	0.650050	1805.486694
8211.208411	1.519314	0.650050	3204.774902
8211.209382	1.477731	0.650050	4639.651367
8211.210298	1.437184	0.650050	5956.111816
8211.211186	1.400314	0.650050	7199.590332
8211.212117	1.081095	0.650050	8206.089844
8211.213080	0.135128	0.650050	8336.218750
8211.214004	0.094900	0.650050	8423.906250
8211.214860	0.094940	0.650050	8505.174805
8211.215807	0.094991	0.650050	8595.131836
8211.216748	0.094911	0.650050	8684.443359
8211.217638	0.094962	0.650050	8768.959961
8211.218528	0.094988	0.650050	8853.499023
8211.219471	0.094918	0.650050	8943.006836
8211.220421	0.094944	0.650050	9033.203125
8211.221309	0.095006	0.650050	9117.568359
8212.235709	1.031997	0.535403	439.630768
8212.236674	1.523833	0.535403	1910.129517
8212.237730	1.511030	0.535403	3505.777588
8212.238661	1.469949	0.535403	4874.299805
8212.239529	1.431885	0.535403	6117.175781
8212.240606	1.387914	0.535403	7611.958984
8212.241615	0.607430	0.535403	8224.856445
8212.242498	0.098287	0.535403	8311.644531
8212.243356	0.095054	0.535403	8393.200195
8212.244430	0.095035	0.535403	8495.268555
8212.245335	0.094918	0.535403	8581.169922
8212.246210	0.095017	0.535403	8664.309570
8212.247192	0.095120	0.535403	8757.716797
8212.248193	0.095013	0.535403	8852.825195
8212.249073	0.094999	0.535403	8936.423828
8212.249929	0.095021	0.535403	9017.761719
8212.250998	0.095035	0.535403	9119.354492
8213.225462	1.065150	0.682860	505.946320
8213.226390	1.529073	0.682860	1924.926514
8213.227283	1.516619	0.682860	3279.267090
8213.228206	1.477628	0.682860	4643.118164
8213.229137	1.435671	0.682860	5979.728516
8213.230089	1.396758	0.682860	7309.441895
8213.230980	1.058181	0.682860	8252.281250
8213.231920	0.134938	0.682860	8379.123047
8213.232874	0.094882	0.682860	8469.639648
8213.233786	0.094980	0.682860	8556.261719
8213.234653	0.094999	0.682860	8638.625977
8213.235606	0.095002	0.682860	8729.163086
8213.236527	0.094977	0.682860	8816.636719
8213.237448	0.094940	0.682860	8904.076172
8213.238310	0.094984	0.682860	8985.952148
8213.239271	0.094999	0.682860	9077.246094
8213.240211	0.094988	0.682860	9166.534180
8214.270409	1.043207	0.485791	447.535736
8214.271304	1.524294	0.485791	1811.779175
8214.272259	1.517523	0.485791	3261.013672
8214.273187	1.477229	0.485791	4631.882324
8214.274067	1.439392	0.485791	5898.547363
8214.274981	1.400775	0.485791	7178.855957
8214.275931	1.074635	0.485791	8199.758789
8214.276866	0.133777	0.485791	8324.839844
8214.277742	0.094922	0.485791	8407.991211
8214.278707	0.094973	0.485791	8499.640625
8214.279636	0.094907	0.485791	8587.809570
8214.280552	0.095039	0.485791	8674.865234
8214.281411	0.094922	0.485791	8756.403320
8214.282384	0.095017	0.485791	8848.854492
8214.283340	0.094969	0.485791	8939.645508
8214.284233	0.094969	0.485791	9024.453125
8214.285161	0.094988	0.485791	9112.601562
8215.246799	1.046133	0.718495	459.252289
8215.247672	1.524243	0.718495	1789.916504
8215.248589	1.518948	0.718495	3182.791504
8215.249549	1.477489	0.718495	4601.180664
8215.250477	1.437656	0.718495	5935.325684
8215.251359	1.400559	0.718495	7170.618652
8215.252313	1.092887	0.718495	8213.232422
8215.253247	0.130276	0.718495	8334.910156
8215.254175	0.094893	0.718495	8422.970703
8215.255038	0.094955	0.718495	8504.916992
8215.256010	0.094962	0.718495	8597.219727
8215.256953	0.095017	0.718495	8686.821289
8215.257839	0.094966	0.718495	8770.960937
8215.258750	0.094988	0.718495	8857.495117
8215.259679	0.095002	0.718495	8945.751953
8215.260595	0.095002	0.718495	9032.774414
8215.261454	0.094984	0.718495	9114.366211
8216.303568	1.060089	0.442172	473.859833
8216.304620	1.533486	0.442172	2087.087402
8216.305518	1.513191	0.442172	3445.932617
8216.306399	1.474325	0.442172	4744.812988
8216.307392	1.432562	0.442172	6167.347168
8216.308322	1.392740	0.442172	7462.595703
8216.309244	0.898180	0.442172	8290.717773
8216.310116	0.112332	0.442172	8388.670898
8216.311074	0.094948	0.442172	8479.630859
8216.312013	0.095109	0.442172	8568.937500
8216.312885	0.095002	0.442172	8651.779297
8216.313809	0.095083	0.442172	8739.635742
8216.314783	0.094995	0.442172	8832.161133
8216.315694	0.095013	0.442172	8918.718750
8216.316579	0.095002	0.442172	9002.795898
8216.317508	0.095002	0.442172	9091.052734
8216.318446	0.094999	0.442172	9180.161133
8217.269707	1.048799	0.714317	458.325073
8217.270566	1.522833	0.714317	1766.438843
8217.271568	1.516860	0.714317	3286.332764
8217.272492	1.476925	0.714317	4651.011719
8217.273363	1.438612	0.714317	5904.042969
8217.274279	1.400504	0.714317	7186.904785
8217.275242	1.072445	0.714317	8219.668945
8217.276174	0.129789	0.714317	8340.631836
8217.277049	0.094915	0.714317	8423.681641
8217.277987	0.094991	0.714317	8512.783203
8217.278933	0.094991	0.714317	8602.645508
8217.279853	0.094969	0.714317	8690.017578
8217.280712	0.094973	0.714317	8771.599609
8217.281687	0.095046	0.714317	8864.269531
8217.282624	0.095035	0.714317	8953.317383
8217.283490	0.095024	0.714317	9035.608398
8217.284363	0.094915	0.714317	9118.468750
8218.332096	1.033022	0.433950	443.166626
8218.332961	1.523478	0.433950	1760.974976
8218.334036	1.515150	0.433950	3389.761475
8218.334920	1.475687	0.433950	4694.269043
8218.335790	1.437645	0.433950	5945.020508
8218.336675	1.399266	0.433950	7183.371094
8218.337724	0.965903	0.433950	8196.603516
8218.338625	0.116832	0.433950	8301.869141
8218.339549	0.094911	0.433950	8389.566406
8218.340413	0.095039	0.433950	8471.679687
8218.341411	0.095054	0.433950	8566.542969
8218.342333	0.095006	0.433950	8654.138672
8218.343195	0.095039	0.433950	8736.062500
8218.344217	0.094966	0.433950	8833.117187
8218.345097	0.094977	0.433950	8916.697266
8218.346016	0.094955	0.433950	9003.960937
8218.346874	0.095028	0.433950	9085.495117
8219.296807	1.123348	0.727583	578.524414
8219.297769	1.531893	0.727583	2052.205811
8219.298650	1.514161	0.727583	3386.182129
8219.299561	1.473629	0.727583	4728.658203
8219.300638	1.428816	0.727583	6267.493164
8219.301526	1.391191	0.727583	7502.871094
8219.302393	0.920409	0.727583	8300.865234
8219.303412	0.105304	0.727583	8408.169922
8219.304383	0.094966	0.727583	8500.381836
8219.305259	0.095032	0.727583	8583.629883
8219.306138	0.095035	0.727583	8667.166016
8219.307250	0.094973	0.727583	8772.776367
8219.308141	0.094955	0.727583	8857.380859
8219.309006	0.094962	0.727583	8939.523437
8219.310043	0.095024	0.727583	9038.063477
8219.311017	0.095002	0.727583	9130.595703
8219.311896	0.095002	0.727583	9214.102539
8220.358079	1.031847	0.431517	439.566772
8220.358988	1.523785	0.431517	1824.687622
8220.360065	1.512631	0.431517	3453.790771
8220.361018	1.470879	0.431517	4855.538086
8220.361894	1.433181	0.431517	6111.004883
8220.362817	1.393868	0.431517	7397.545410
8220.363908	0.741577	0.431517	8206.606445
8220.364787	0.101144	0.431517	8295.511719
8220.365654	0.094874	0.431517	8377.767578
8220.366677	0.095039	0.431517	8474.992187
8220.367639	0.094929	0.431517	8566.314453
8220.368511	0.095002	0.431517	8649.156250
8220.369397	0.095061	0.431517	8733.379883
8220.370485	0.094958	0.431517	8836.694336
8220.371371	0.094900	0.431517	8920.775391
8220.372233	0.094900	0.431517	9002.579102
8220.373272	0.095076	0.431517	9101.362305
8221.327826	1.057434	0.661679	469.500732
8221.328700	1.524543	0.661679	1801.951660
8221.329704	1.516256	0.661679	3324.272949
8221.330711	1.471813	0.661679	4806.388184
8221.331595	1.433837	0.661679	6073.899902
8221.332457	1.396567	0.661679	7277.741211
8221.333535	0.848646	0.661679	8192.582031
8221.334448	0.105300	0.661679	8288.721680
8221.335326	0.094980	0.661679	8372.114258
8221.336308	0.095065	0.661679	8465.467773
8221.337319	0.094966	0.661679	8561.478516
8221.338208	0.094995	0.661679	8645.928711
8221.339068	0.094988	0.661679	8727.618164
8221.340154	0.095010	0.661679	8830.798828
8221.341081	0.095017	0.661679	8918.879883
8221.341955	0.095072	0.661679	9001.972656
8221.342928	0.095101	0.661679	9094.505859
8222.379450	1.049528	0.449560	446.049194
8222.380510	1.532728	0.449560	2070.741211
8222.381406	1.513861	0.449560	3427.160645
8222.382287	1.475186	0.449560	4726.799316
8222.383261	1.433683	0.449560	6123.206543
8222.384219	1.393334	0.449560	7458.020508
8222.385148	0.902369	0.449560	8296.321289
8222.386009	0.113481	0.449560	8394.029297
8222.387036	0.094966	0.449560	8491.559570
8222.387913	0.094999	0.449560	8574.873047
8222.388777	0.095054	0.449560	8656.999023
8222.389703	0.095021	0.449560	8744.988281
8222.390687	0.094955	0.449560	8838.423828
8222.391610	0.094911	0.449560	8926.026367
8222.392490	0.095072	0.449560	9009.689453
8222.393466	0.095105	0.449560	9102.511719
8222.394379	0.094999	0.449560	9189.246094
8223.359559	1.156392	0.643080	653.361206
8223.360554	1.533362	0.643080	2179.056152
8223.361439	1.510631	0.643080	3515.964844
8223.362312	1.470487	0.643080	4799.700195
8223.363419	1.425410	0.643080	6377.629395
8223.364319	1.386877	0.643080	7625.819336
8223.365247	0.721392	0.643080	8295.270508
8223.366108	0.101799	0.643080	8382.919922
8223.367141	0.094922	0.643080	8480.974609
8223.368031	0.094951	0.643080	8565.481445
8223.368910	0.094966	0.643080	8648.956055
8223.369903	0.095028	0.643080	8743.319336
8223.370847	0.094944	0.643080	8832.946289
8223.371772	0.094977	0.643080	8920.799805
8223.372634	0.095032	0.643080	9002.716797
8223.373679	0.095024	0.643080	9102.017578
8223.374555	0.094911	0.643080	9185.159180
8224.401865	1.039189	0.436706	451.008240
8224.402727	1.524130	0.436706	1764.807861
8224.403718	1.517530	0.436706	3268.680664
8224.404628	1.476962	0.436706	4612.715820
8224.405564	1.437176	0.436706	5957.913086
8224.406453	1.399255	0.436706	7201.851074
8224.407458	1.016342	0.436706	8223.274414
8224.408377	0.120762	0.436706	8334.254883
8224.409256	0.094966	0.436706	8417.729492
8224.410267	0.095057	0.436706	8513.832031
8224.411156	0.095021	0.436706	8598.305664
8224.412071	0.095024	0.436706	8685.252930
8224.412933	0.094940	0.436706	8767.091797
8224.413928	0.094984	0.436706	8861.600586
8224.414839	0.094944	0.436706	8948.094727
8224.415708	0.095017	0.436706	9030.665039
8224.416571	0.095039	0.436706	9112.683594
8225.390007	1.032433	0.593782	434.654266
8225.390997	1.528341	0.593782	1947.711914
8225.391933	1.515139	0.593782	3365.882080
8225.392812	1.476453	0.593782	4663.684082
8225.393746	1.437034	0.593782	6005.873535
8225.394691	1.397388	0.593782	7326.404785
8225.395621	1.000884	0.593782	8257.226562
8225.396496	0.126423	0.593782	8367.846680
8225.397410	0.094958	0.593782	8454.638672
8225.398371	0.094918	0.593782	8545.855469
8225.399255	0.095002	0.593782	8629.837891
8225.400157	0.095061	0.593782	8715.583008
8225.401107	0.095050	0.593782	8805.880859
8225.402039	0.094933	0.593782	8894.358398
8225.402928	0.095035	0.593782	8978.844727
8225.403787	0.095050	0.593782	9060.493164
8225.404748	0.095028	0.593782	9151.815430
8226.423815	1.088485	0.442531	546.419556
8226.424769	1.530494	0.442531	2006.511108
8226.425696	1.514110	0.442531	3410.091309
8226.426562	1.475339	0.442531	4687.735352
8226.427520	1.434869	0.442531	6062.339844
8226.428445	1.394865	0.442531	7352.589844
8226.429384	0.969313	0.442531	8262.774414
8226.430246	0.121121	0.442531	8367.180664
8226.431204	0.094929	0.442531	8458.123047
8226.432145	0.095035	0.442531	8547.551758
8226.433028	0.095061	0.442531	8631.490234
8226.433941	0.094988	0.442531	8718.213867
8226.434894	0.094999	0.442531	8808.748047
8226.435815	0.095013	0.442531	8896.255859
8226.436673	0.094999	0.442531	8977.764648
8226.437647	0.095013	0.442531	9070.307617
8226.438595	0.094969	0.442531	9160.338867
8227.421136	1.057650	0.557495	460.077850
8227.422015	1.525470	0.557495	1800.965942
8227.423017	1.516553	0.557495	3320.551758
8227.423924	1.475867	0.557495	4659.163086
8227.424850	1.436594	0.557495	5989.449219
8227.425713	1.399222	0.557495	7196.978027
8227.426758	0.978768	0.557495	8219.791016
8227.427637	0.121809	0.557495	8326.861328
8227.428500	0.094991	0.557495	8408.838867
8227.429494	0.095021	0.557495	8503.289062
8227.430415	0.095057	0.557495	8590.836914
8227.431329	0.094948	0.557495	8677.619141
8227.432203	0.095006	0.557495	8760.654297
8227.433229	0.094966	0.557495	8858.088867
8227.434126	0.094995	0.557495	8943.299805
8227.435002	0.094995	0.557495	9026.515625
8227.435935	0.095068	0.557495	9115.214844
8228.446681	1.061876	0.468106	482.091827
8228.447553	1.525917	0.468106	1812.691162
8228.448554	1.515765	0.468106	3329.972412
8228.449612	1.469729	0.468106	4884.945801
8228.450511	1.430786	0.468106	6171.222656
8228.451384	1.393239	0.468106	7387.520020
8228.452481	0.720282	0.468106	8177.669434
8228.453446	0.098324	0.468106	8272.551758
8228.454313	0.094969	0.468106	8354.890625
8228.455361	0.095024	0.468106	8454.476562
8228.456404	0.094969	0.468106	8553.529297
8228.457301	0.094973	0.468106	8638.719727
8228.458165	0.094937	0.468106	8720.745117
8228.459213	0.095094	0.468106	8820.403320
8228.460180	0.094922	0.468106	8912.192383
8228.461051	0.095006	0.468106	8994.942383
8228.461938	0.095094	0.468106	9079.291016
8229.451191	1.036725	0.537515	436.461151
8229.452278	1.530571	0.537515	2100.192139
8229.453278	1.507698	0.537515	3607.889893
8229.454173	1.468491	0.537515	4922.189453
8229.455169	1.426187	0.537515	6342.671387
8229.456231	1.383219	0.537515	7811.649902
8229.457122	0.574127	0.537515	8323.197266
8229.457983	0.098185	0.537515	8407.734375
8229.459090	0.094988	0.537515	8512.885742
8229.460042	0.094911	0.537515	8603.241211
8229.460904	0.094907	0.537515	8685.050781
8229.461954	0.094948	0.537515	8784.746094
8229.462982	0.094816	0.537515	8882.216797
8229.463864	0.094900	0.537515	8965.918945
8229.464780	0.094926	0.537515	9052.871094
8229.465844	0.094922	0.537515	9153.868164
8229.466786	0.094904	0.537515	9243.267578
8230.469561	1.038494	0.493457	440.321289
8230.470514	1.527737	0.493457	1896.254395
8230.471444	1.516003	0.493457	3306.137695
8230.472365	1.476171	0.493457	4665.690918
8230.473243	1.437466	0.493457	5927.786133
8230.474223	1.397373	0.493457	7297.211914
8230.475165	1.026973	0.493457	8264.620117
8230.476027	0.130547	0.493457	8377.151367
8230.476989	0.094841	0.493457	8468.388672
8230.477923	0.094937	0.493457	8557.059570
8230.478838	0.095021	0.493457	8644.003906
8230.479704	0.094944	0.493457	8726.225586
8230.480655	0.094980	0.493457	8816.551758
8230.481583	0.094904	0.493457	8904.622070
8230.482477	0.094918	0.493457	8989.478516
8230.483382	0.094929	0.493457	9075.389648
8230.484332	0.094958	0.493457	9165.600586
8231.480821	1.104818	0.504780	531.417480
8231.481758	1.529747	0.504780	1964.790771
8231.482692	1.514963	0.504780	3379.766602
8231.483565	1.475841	0.504780	4668.175781
8231.484536	1.434807	0.504780	6061.373535
8231.485488	1.395458	0.504780	7389.849609
8231.486374	1.015825	0.504780	8289.871094
8231.487294	0.127614	0.504780	8407.275391
8231.488243	0.094838	0.504780	8497.276367
8231.489165	0.094944	0.504780	8584.814453
8231.490052	0.095002	0.504780	8669.082031
8231.490967	0.094988	0.504780	8755.996094
8231.491913	0.094958	0.504780	8845.827148
8231.492828	0.094940	0.504780	8932.697266
8231.493689	0.094988	0.504780	9014.481445
8231.494654	0.094937	0.504780	9106.094727
8231.495576	0.094929	0.504780	9193.619141
8232.494040	1.053369	0.491624	466.642548
8232.494920	1.525913	0.491624	1809.446045
8232.495839	1.519504	0.491624	3205.870605
8232.496784	1.477368	0.491624	4601.983398
8232.497716	1.437605	0.491624	5941.831055
8232.498597	1.400925	0.491624	7176.046387
8232.499536	1.104236	0.491624	8212.923828
8232.500485	0.140570	0.491624	8346.325195
8232.501393	0.094867	0.491624	8432.464844
8232.502264	0.094958	0.491624	8515.173828
8232.503220	0.094966	0.491624	8605.960937
8232.504145	0.094937	0.491624	8693.777344
8232.505058	0.094962	0.491624	8780.477539
8232.505920	0.094944	0.491624	8862.319336
8232.506877	0.095002	0.491624	8953.236328
8232.507825	0.095010	0.491624	9043.305664
8232.508711	0.095017	0.491624	9127.491211
8233.510338	1.040460	0.467857	448.438354
8233.511203	1.523460	0.467857	1766.230835
8233.512294	1.513129	0.467857	3417.054199
8233.513215	1.472582	0.467857	4773.301758
8233.514098	1.434825	0.467857	6040.252441
8233.515078	1.394315	0.467857	7406.681641
8233.516111	0.787061	0.467857	8219.714844
8233.517003	0.103059	0.467857	8311.643555
8233.517883	0.094904	0.467857	8395.158203
8233.518863	0.094958	0.467857	8488.217773
8233.519804	0.095002	0.467857	8577.615234
8233.520722	0.094885	0.467857	8664.719727
8233.521589	0.094951	0.467857	8747.041992
8233.522622	0.094948	0.467857	8845.123047
8233.523497	0.094958	0.467857	8928.211914
8233.524366	0.094951	0.467857	9010.724609
8233.525265	0.095035	0.467857	9096.161133
8234.518084	1.158080	0.515061	640.418091
8234.519137	1.533380	0.515061	2255.067383
8234.520026	1.508496	0.515061	3596.120605
8234.520952	1.467286	0.515061	4954.827637
8234.522024	1.421781	0.515061	6478.977051
8234.522979	1.382611	0.515061	7799.370605
8234.523856	0.609456	0.515061	8333.863281
8234.524919	0.096277	0.515061	8436.206055
8234.525924	0.094889	0.515061	8531.569336
8234.526812	0.094933	0.515061	8615.870117
8234.527759	0.095002	0.515061	8705.837891
8234.528798	0.095017	0.515061	8804.560547
8234.529725	0.094907	0.515061	8892.539062
8234.530588	0.094948	0.515061	8974.478516
8234.531659	0.095010	0.515061	9076.234375
8234.532667	0.094907	0.515061	9171.900391
8234.533547	0.094838	0.515061	9255.357422
8235.536863	1.073313	0.466966	492.650665
8235.537756	1.527499	0.466966	1856.707031
8235.538743	1.515813	0.466966	3352.814453
8235.539680	1.474091	0.466966	4734.037109
8235.540607	1.434327	0.466966	6063.658691
8235.541498	1.397428	0.466966	7308.767090
8235.542463	0.988792	0.466966	8262.951172
8235.543400	0.117334	0.466966	8372.893555
8235.544278	0.094845	0.466966	8456.166992
8235.545147	0.094926	0.466966	8538.657227
8235.546148	0.094885	0.466966	8633.637695
8235.547067	0.094882	0.466966	8720.833984
8235.547950	0.094838	0.466966	8804.575195
8235.548875	0.094915	0.466966	8892.371094
8235.549826	0.094977	0.466966	8982.694336
8235.550754	0.094944	0.466966	9070.801758
8235.551637	0.094977	0.466966	9154.666016
8236.545563	1.107766	0.492635	554.990784
8236.546450	1.528982	0.492635	1911.197754
8236.547320	1.518358	0.492635	3232.169434
8236.548210	1.477749	0.492635	4547.366211
8236.549263	1.433529	0.492635	6056.872559
8236.550162	1.396516	0.492635	7312.340820
8236.551037	1.076389	0.492635	8254.181641
8236.552024	0.133132	0.492635	8385.583008
8236.552958	0.094867	0.492635	8474.188477
8236.553885	0.094867	0.492635	8562.129883
8236.554746	0.094893	0.492635	8643.832031
8236.555770	0.094863	0.492635	8740.971680
8236.556645	0.094900	0.492635	8824.008789
8236.557559	0.094926	0.492635	8910.770508
8236.558422	0.094878	0.492635	8992.650391
8236.559389	0.094871	0.492635	9084.390625
8236.560314	0.094893	0.492635	9172.166016
8237.564394	1.068614	0.444146	499.042969
8237.565267	1.527187	0.444146	1832.277588
8237.566190	1.518256	0.444146	3233.627441
8237.567148	1.476720	0.444146	4648.325195
8237.568072	1.436785	0.444146	5975.914062
8237.568955	1.399717	0.444146	7211.863770
8237.569898	1.066604	0.444146	8217.671875
8237.570842	0.126687	0.444146	8337.264648
8237.571734	0.094878	0.444146	8421.895508
8237.572813	0.094926	0.444146	8524.320312
8237.573744	0.094958	0.444146	8612.726562
8237.574686	0.094958	0.444146	8702.177734
8237.575562	0.094929	0.444146	8785.335937
8237.576488	0.094940	0.444146	8873.250977
8237.577419	0.094988	0.444146	8961.684570
8237.578311	0.094973	0.444146	9046.400391
8237.579223	0.094933	0.444146	9132.979492
8238.570430	1.026727	0.503564	433.278931
8238.571307	1.522438	0.503564	1768.456909
8238.572365	1.514766	0.503564	3371.079102
8238.573243	1.475402	0.503564	4666.481445
8238.574125	1.437697	0.503564	5934.529785
8238.575132	1.396066	0.503564	7340.367676
8238.576084	0.946729	0.503564	8241.653320
8238.577008	0.112625	0.503564	8345.718750
8238.577875	0.094904	0.503564	8428.000000
8238.578903	0.094984	0.503564	8525.643555
8238.579793	0.094922	0.503564	8610.124023
8238.580705	0.094922	0.503564	8696.692383
8238.581567	0.094955	0.503564	8778.542969
8238.582571	0.094940	0.503564	8873.863281
8238.583492	0.094969	0.503564	8961.330078
8238.584356	0.094977	0.503564	9043.389648
8238.585249	0.094940	0.503564	9128.170898
8239.589822	1.037000	0.430148	443.835815
8239.590690	1.523430	0.430148	1766.173096
8239.591810	1.512543	0.430148	3460.220947
8239.592710	1.472443	0.430148	4785.419434
8239.593585	1.434814	0.430148	6040.881836
8239.594601	1.393268	0.430148	7456.441895
8239.595594	0.789448	0.430148	8240.364258
8239.596480	0.103953	0.430148	8332.465820
8239.597335	0.094871	0.430148	8413.580078
8239.598425	0.094874	0.430148	8516.993164
8239.599313	0.094856	0.430148	8601.225586
8239.600188	0.094918	0.430148	8684.279297
8239.601163	0.094969	0.430148	8776.875000
8239.602171	0.094838	0.430148	8872.471680
8239.603064	0.094937	0.430148	8957.250000
8239.603927	0.094999	0.430148	9039.234375
8239.605005	0.094882	0.430148	9141.516602
8240.598995	1.046210	0.481746	453.008789
8240.599872	1.524686	0.481746	1790.158569
8240.600753	1.520731	0.481746	3129.922852
8240.601684	1.481166	0.481746	4508.888184
8240.602632	1.439059	0.481746	5873.116211
8240.603564	1.400541	0.481746	7178.419922
8240.604440	1.184117	0.481746	8215.707031
8240.605380	0.167380	0.481746	8373.044922
8240.606334	0.094845	0.481746	8463.527344
8240.607240	0.094991	0.481746	8549.589844
8240.608121	0.094977	0.481746	8633.264648
8240.609068	0.095017	0.481746	8723.246094
8240.609998	0.094915	0.481746	8811.516602
8240.610909	0.094966	0.481746	8898.030273
8240.611769	0.094907	0.481746	8979.650391
8240.612725	0.094962	0.481746	9070.434570
8240.613670	0.095002	0.481746	9160.211914
8241.615360	1.106777	0.417833	532.359863
8241.616245	1.528242	0.417833	1884.854248
8241.617114	1.519109	0.417833	3204.959961
8241.618111	1.476350	0.417833	4676.880859
8241.619045	1.435371	0.417833	6017.517578
8241.619959	1.397402	0.417833	7294.743164
8241.620846	1.060444	0.417833	8235.357422
8241.621883	0.112826	0.417833	8352.357422
8241.622778	0.094794	0.417833	8437.198242
8241.623652	0.094958	0.417833	8520.192383
8241.624611	0.094988	0.417833	8611.286133
8241.625575	0.094896	0.417833	8702.765625
8241.626490	0.094940	0.417833	8789.635742
8241.627355	0.094962	0.417833	8871.778320
8241.628379	0.094929	0.417833	8968.985352
8241.629248	0.094937	0.417833	9051.485352
8241.630126	0.094966	0.417833	9134.865234
8242.625985	1.037109	0.481883	443.882812
8242.626952	1.523998	0.481883	1917.588623
8242.628010	1.510411	0.481883	3515.604004
8242.628929	1.469670	0.481883	4866.230957
8242.629807	1.431280	0.481883	6122.895508
8242.630868	1.388027	0.481883	7595.592773
8242.631882	0.610547	0.481883	8214.687500
8242.632777	0.098057	0.481883	8302.448242
8242.633759	0.094988	0.481883	8395.726562
8242.634806	0.094962	0.481883	8495.152344
8242.635718	0.094955	0.481883	8581.750977
8242.636592	0.094940	0.481883	8664.728516
8242.637588	0.095039	0.481883	8759.387695
8242.638574	0.094904	0.481883	8852.962891
8242.639461	0.094980	0.481883	8937.210937
8242.640321	0.094977	0.481883	9018.890625
8242.641401	0.094926	0.481883	9121.410156
8243.639232	1.041987	0.436037	444.928589
8243.640211	1.527323	0.436037	1940.177856
8243.641137	1.515864	0.436037	3343.868164
8243.642009	1.477148	0.436037	4631.941406
8243.642922	1.437865	0.436037	5944.711914
8243.643873	1.398461	0.436037	7274.647949
8243.644812	1.050157	0.436037	8260.746094
8243.645686	0.133085	0.436037	8377.062500
8243.646619	0.094841	0.436037	8465.549805
8243.647559	0.094904	0.436037	8554.758789
8243.648483	0.094911	0.436037	8642.456055
8243.649345	0.094882	0.436037	8724.244141
8243.650427	0.095035	0.436037	8827.072266
8243.651485	0.094962	0.436037	8927.541992
8243.652365	0.094918	0.436037	9011.070312
8243.653235	0.094988	0.436037	9093.709961
8243.654336	0.094995	0.436037	9198.299805
8244.654108	1.115709	0.455022	569.011658
8244.655113	1.532886	0.455022	2109.561768
8244.655993	1.512455	0.455022	3440.521973
8244.656998	1.468491	0.455022	4916.355469
8244.658055	1.423828	0.455022	6421.341797
8244.658952	1.386193	0.455022	7664.756348
8244.659846	0.702546	0.455022	8292.833008
8244.660942	0.096625	0.455022	8398.733398
8244.661892	0.094871	0.455022	8488.860352
8244.662761	0.094860	0.455022	8571.292969
8244.663778	0.095035	0.455022	8667.944336
8244.664806	0.094948	0.455022	8765.550781
8244.665696	0.094958	0.455022	8850.063477
8244.666601	0.094980	0.455022	8936.020508
8244.667678	0.094962	0.455022	9038.294922
8244.668631	0.094926	0.455022	9128.758789
8244.669492	0.094962	0.455022	9210.521484
8245.661641	1.054237	0.440452	462.810089
8245.662522	1.525389	0.440452	1806.678101
8245.663385	1.519688	0.440452	3118.168457
8245.664498	1.473570	0.440452	4758.252441
8245.665420	1.433463	0.440452	6079.905273
8245.666303	1.397014	0.440452	7313.468750
8245.667314	0.894390	0.440452	8217.696289
8245.668303	0.103477	0.440452	8320.034180
8245.669190	0.094969	0.440452	8404.272461
8245.670047	0.094955	0.440452	8485.648437
8245.671134	0.094999	0.440452	8588.912109
8245.672032	0.094911	0.440452	8674.142578
8245.672895	0.094991	0.440452	8756.120117
8245.673880	0.094958	0.440452	8849.654297
8245.674881	0.094988	0.440452	8944.737305
8245.675784	0.095013	0.440452	9030.534180
8245.676644	0.095002	0.440452	9112.236328
8246.684680	1.103965	0.422059	555.294312
8246.685585	1.530106	0.422059	1940.040405
8246.686512	1.515527	0.422059	3344.934326
8246.687382	1.476691	0.422059	4629.655273
8246.688384	1.434313	0.422059	6066.836426
8246.689305	1.396051	0.422059	7352.599609
8246.690192	1.043697	0.422059	8278.359375
8246.691080	0.134293	0.422059	8397.611328
8246.692019	0.094918	0.422059	8486.739258
8246.692954	0.094951	0.422059	8575.518555
8246.693842	0.095013	0.422059	8659.890625
8246.694750	0.094915	0.422059	8746.073242
8246.695712	0.094995	0.422059	8837.458984
8246.696634	0.094878	0.422059	8924.936523
8246.697512	0.094904	0.422059	9008.261719
8246.698465	0.094918	0.422059	9098.718750
8246.699412	0.094940	0.422059	9188.626953
8247.684121	1.113303	0.456722	563.331482
8247.685050	1.531263	0.456722	1985.875244
8247.685915	1.516018	0.456722	3297.230957
8247.686981	1.470168	0.456722	4864.430664
8247.687999	1.426509	0.456722	6316.616699
8247.688884	1.389624	0.456722	7546.434082
8247.689869	0.717349	0.456722	8253.022461
8247.690947	0.097346	0.456722	8357.961914
8247.691839	0.094937	0.456722	8442.645508
8247.692714	0.095017	0.456722	8525.785156
8247.693696	0.095090	0.456722	8619.164062
8247.694688	0.094937	0.456722	8713.340820
8247.695580	0.095043	0.456722	8798.119141
8247.696440	0.094966	0.456722	8879.790039
8247.697507	0.095094	0.456722	8981.254883
8247.698435	0.094966	0.456722	9069.382812
8247.699314	0.094948	0.456722	9152.841797
8248.715204	1.031235	0.400398	442.399963
8248.716068	1.523463	0.400398	1758.672119
8248.717099	1.516011	0.400398	3321.679199
8248.718057	1.473530	0.400398	4733.321289
8248.718944	1.435375	0.400398	6006.498535
8248.719817	1.397029	0.400398	7226.104492
8248.720944	0.830731	0.400398	8162.338379
8248.721853	0.104502	0.400398	8257.331055
8248.722717	0.094918	0.400398	8339.340820
8248.723766	0.094991	0.400398	8438.987305
8248.724738	0.094969	0.400398	8531.297852
8248.725616	0.094995	0.400398	8614.703125
8248.726475	0.094988	0.400398	8696.297852
8248.727586	0.095028	0.400398	8801.874023
8248.728478	0.094973	0.400398	8886.589844
8248.729348	0.095021	0.400398	8969.257812
8248.730343	0.095072	0.400398	9063.854492
8249.705915	1.027548	0.495696	432.597534
8249.706926	1.526140	0.495696	1975.525146
8249.707919	1.511287	0.495696	3476.232910
8249.708813	1.472263	0.495696	4792.436523
8249.709675	1.432932	0.495696	6027.624023
8249.710767	1.390023	0.495696	7545.529297
8249.711669	0.817581	0.495696	8282.987305
8249.712549	0.105483	0.495696	8375.812500
8249.713533	0.094958	0.495696	8469.251953
8249.714526	0.094926	0.495696	8563.512695
8249.715412	0.094878	0.495696	8647.574219
8249.716272	0.094944	0.495696	8729.225586
8249.717352	0.094991	0.495696	8831.816406
8249.718270	0.094900	0.495696	8918.934570
8249.719146	0.094940	0.495696	9002.102539
8249.720142	0.095043	0.495696	9096.764648
8249.721146	0.094966	0.495696	9192.110352
8250.747419	1.112051	0.362121	568.257935
8250.748306	1.530366	0.362121	1925.692749
8250.749174	1.516278	0.362121	3241.822266
8250.750286	1.469487	0.362121	4875.892090
8250.751248	1.428435	0.362121	6250.046875
8250.752109	1.392579	0.362121	7449.057617
8250.753148	0.738757	0.362121	8216.626953
8250.754175	0.098057	0.362121	8317.331055
8250.755054	0.094969	0.362121	8400.809570
8250.755952	0.094988	0.362121	8486.108398
8250.757043	0.094991	0.362121	8589.744141
8250.757981	0.094995	0.362121	8678.849609
8250.758848	0.094922	0.362121	8761.146484
8250.759871	0.095068	0.362121	8858.401367
8250.760910	0.094988	0.362121	8957.093750
8250.761798	0.094980	0.362121	9041.436523
8250.762741	0.095017	0.362121	9131.038086
8251.727822	1.035293	0.535533	454.493622
8251.728685	1.523525	0.535533	1769.296021
8251.729715	1.515447	0.535533	3330.206055
8251.730753	1.470608	0.535533	4856.697266
8251.731632	1.431830	0.535533	6115.275391
8251.732555	1.393260	0.535533	7401.254883
8251.733632	0.722813	0.535533	8179.724121
8251.734576	0.098965	0.535533	8273.146484
8251.735441	0.094867	0.535533	8355.206055
8251.736459	0.095017	0.535533	8451.933594
8251.737492	0.094940	0.535533	8550.006836
8251.738380	0.094969	0.535533	8634.339844
8251.739308	0.095024	0.535533	8722.522461
8251.740354	0.094973	0.535533	8821.864258
8251.741295	0.094966	0.535533	8911.227539
8251.742155	0.094933	0.535533	8992.870117
8251.743210	0.095013	0.535533	9093.109375
8252.778428	1.035487	0.349472	440.082001
8252.779301	1.524137	0.349472	1770.653564
8252.780309	1.517014	0.349472	3299.803711
8252.781246	1.475248	0.349472	4682.110840
8252.782176	1.435884	0.349472	6017.482910
8252.783041	1.398977	0.349472	7227.598145
8252.784087	0.952229	0.349472	8223.629883
8252.784962	0.117290	0.349472	8326.258789
8252.785837	0.094871	0.349472	8409.270508
8252.786796	0.095094	0.349472	8500.465820
8252.787758	0.094991	0.349472	8591.847656
8252.788665	0.094958	0.349472	8677.974609
8252.789542	0.095046	0.349472	8761.330078
8252.790580	0.094940	0.349472	8859.877930
8252.791470	0.095013	0.349472	8944.439453
8252.792384	0.095002	0.349472	9031.271484
8252.793250	0.094991	0.349472	9113.534180
8253.751232	1.051666	0.551537	450.113159
8253.752218	1.529183	0.551537	1957.887939
8253.753153	1.514513	0.551537	3373.957520
8253.754020	1.475706	0.551537	4653.394043
8253.754983	1.435133	0.551537	6035.427246
8253.755946	1.395634	0.551537	7379.422363
8253.756850	1.003290	0.551537	8286.396484
8253.757791	0.126291	0.551537	8405.236328
8253.758689	0.094867	0.551537	8490.426758
8253.759627	0.094973	0.551537	8579.511719
8253.760517	0.094969	0.551537	8664.034180
8253.761426	0.094991	0.551537	8750.381836
8253.762379	0.094966	0.551537	8840.883789
8253.763301	0.094977	0.551537	8928.452148
8253.764163	0.094966	0.551537	9010.312500
8253.765121	0.094969	0.551537	9101.292969
8253.766045	0.094944	0.551537	9189.021484
8254.805997	1.060638	0.338733	494.257507
8254.806877	1.527865	0.338733	1838.778564
8254.807742	1.520255	0.338733	3153.799316
8254.808698	1.479371	0.338733	4568.078125
8254.809642	1.437964	0.338733	5925.516113
8254.810563	1.399482	0.338733	7214.439453
8254.811426	1.119196	0.338733	8180.305176
8254.812398	0.143317	0.338733	8319.609375
8254.813351	0.094852	0.338733	8410.003906
8254.814238	0.094918	0.338733	8494.196289
8254.815165	0.094999	0.338733	8582.259766
8254.816119	0.094958	0.338733	8672.850586
8254.816987	0.094995	0.338733	8755.306641
8254.817853	0.094911	0.338733	8837.499023
8254.818819	0.094984	0.338733	8929.253906
8254.819767	0.094988	0.338733	9019.302734
8254.820653	0.095021	0.338733	9103.491211
8255.775815	1.132734	0.602197	637.729492
8255.776861	1.532450	0.602197	2240.672119
8255.777765	1.507672	0.602197	3603.607666
8255.778628	1.467755	0.602197	4870.280273
8255.779720	1.423224	0.602197	6424.440430
8255.780682	1.383003	0.602197	7754.889160
8255.781565	0.632692	0.602197	8313.555664
8255.782565	0.098134	0.602197	8411.689453
8255.783617	0.095054	0.602197	8511.685547
8255.784501	0.094977	0.602197	8595.645508
8255.785383	0.095002	0.602197	8679.437500
8255.786486	0.095050	0.602197	8784.277344
8255.787445	0.094977	0.602197	8875.360352
8255.788314	0.094900	0.602197	8957.828125
8255.789347	0.094988	0.602197	9055.950195
8255.790381	0.094980	0.602197	9154.160156
8255.791274	0.094984	0.602197	9238.981445
8256.833051	1.115911	0.308190	565.766724
8256.834004	1.532413	0.308190	2026.156616
8256.834871	1.515487	0.308190	3340.083984
8256.835783	1.474658	0.308190	4684.972168
8256.836865	1.429340	0.308190	6231.517578
8256.837765	1.391759	0.308190	7484.100586
8256.838637	0.932963	0.308190	8297.644531
8256.839642	0.106857	0.308190	8405.035156
8256.840611	0.094852	0.308190	8496.947266
8256.841525	0.094944	0.308190	8583.725586
8256.842410	0.094962	0.308190	8667.767578
8256.843423	0.095024	0.308190	8764.027344
8256.844320	0.094980	0.308190	8849.224609
8256.845236	0.094944	0.308190	8936.193359
8256.846098	0.095002	0.308190	9018.085937
8256.847138	0.094973	0.308190	9116.858398
8256.848008	0.094991	0.308190	9199.500977
8257.804223	1.036806	0.556298	443.752747
8257.805087	1.522529	0.556298	1759.218018
8257.806192	1.512308	0.556298	3430.318848
8257.807169	1.469744	0.556298	4866.258301
8257.808045	1.432163	0.556298	6120.833008
8257.809113	1.388064	0.556298	7603.285156
8257.810138	0.612155	0.556298	8230.743164
8257.811021	0.097958	0.556298	8317.240234
8257.811931	0.094863	0.556298	8403.565430
8257.813011	0.094911	0.556298	8506.069336
8257.813951	0.094904	0.556298	8595.278320
8257.814811	0.094900	0.556298	8676.892578
8257.815844	0.094933	0.556298	8774.958008
8257.816870	0.094977	0.556298	8872.404297
8257.817744	0.094969	0.556298	8955.407227
8257.818682	0.094980	0.556298	9044.499023
8257.819739	0.094988	0.556298	9144.901367
8258.855358	1.033649	0.316505	440.334351
8258.856363	1.526455	0.316505	1974.421753
8258.857307	1.513605	0.316505	3403.264648
8258.858236	1.473146	0.316505	4771.816895
8258.859107	1.434954	0.316505	6021.661621
8258.860138	1.392909	0.316505	7457.750977
8258.861026	0.937291	0.316505	8290.065430
8258.861890	0.116851	0.316505	8391.024414
8258.862849	0.094867	0.316505	8482.001953
8258.863798	0.094907	0.316505	8572.069336
8258.864705	0.094958	0.316505	8658.196289
8258.865583	0.094926	0.316505	8741.541016
8258.866601	0.094922	0.316505	8838.171875
8258.867513	0.094937	0.316505	8924.753906
8258.868389	0.094896	0.316505	9007.882812
8258.869247	0.094980	0.316505	9089.375977
8258.870293	0.094926	0.316505	9188.667969
8259.833273	1.024318	0.534630	430.213409
8259.834195	1.522797	0.534630	1834.231934
8259.835156	1.516692	0.534630	3291.772949
8259.836089	1.475918	0.534630	4668.804687
8259.836971	1.437583	0.534630	5936.752930
8259.837977	1.395000	0.534630	7340.123047
8259.838936	0.938958	0.534630	8240.583008
8259.839862	0.112496	0.534630	8344.754883
8259.840726	0.094746	0.534630	8426.615234
8259.841694	0.094918	0.534630	8518.496094
8259.842626	0.094849	0.534630	8606.894531
8259.843485	0.094958	0.534630	8688.463867
8259.844420	0.094882	0.534630	8777.177734
8259.845360	0.094871	0.534630	8866.356445
8259.846280	0.094951	0.534630	8953.711914
8259.847140	0.094838	0.534630	9035.272461
8259.848106	0.094871	0.534630	9126.916992
8260.877254	1.049648	0.325734	454.497772
8260.878132	1.524957	0.325734	1793.410278
8260.878995	1.521669	0.325734	3106.610352
8260.880044	1.476295	0.325734	4655.244141
8260.880978	1.435939	0.325734	5996.411133
8260.881867	1.399230	0.325734	7240.326172
8260.882867	0.986851	0.325734	8227.176758
8260.883778	0.120718	0.325734	8337.150391
8260.884677	0.094885	0.325734	8422.452148
8260.885563	0.094937	0.325734	8506.565430
8260.886505	0.094933	0.325734	8595.992187
8260.887451	0.094911	0.325734	8685.778320
8260.888341	0.094940	0.325734	8770.275391
8260.889211	0.094958	0.325734	8852.889648
8260.890249	0.094907	0.325734	8951.403320
8260.891161	0.094929	0.325734	9037.978516
8260.892082	0.095013	0.325734	9125.486328
8261.863888	1.048099	0.505618	455.923248
8261.864765	1.524426	0.505618	1792.845093
8261.865633	1.521379	0.505618	3113.402344
8261.866629	1.478632	0.505618	4586.119141
8261.867556	1.438422	0.505618	5919.536133
8261.868479	1.400270	0.505618	7211.985352
8261.869343	1.150488	0.505618	8206.006836
8261.870300	0.150707	0.505618	8350.233398
8261.871251	0.094720	0.505618	8440.312500
8261.872136	0.094977	0.505618	8524.367187
8261.873028	0.094933	0.505618	8609.046875
8261.873973	0.094944	0.505618	8698.768555
8261.874920	0.094933	0.505618	8788.669922
8261.875807	0.094991	0.505618	8872.927734
8261.876733	0.094874	0.505618	8960.781250
8261.877682	0.094904	0.505618	9050.844727
8261.878610	0.094948	0.505618	9138.956055
8262.898655	1.052362	0.334346	472.510590
8262.899523	1.525847	0.334346	1796.946045
8262.900432	1.519200	0.334346	3177.899414
8262.901388	1.476892	0.334346	4589.808105
8262.902352	1.436184	0.334346	5974.289551
8262.903247	1.398992	0.334346	7226.387207
8262.904160	1.077905	0.334346	8210.514648
8262.905138	0.128181	0.334346	8335.875977
8262.906027	0.094772	0.334346	8420.127930
8262.906941	0.094915	0.334346	8506.879883
8262.907899	0.094915	0.334346	8597.807617
8262.908824	0.094937	0.334346	8685.624023
8262.909686	0.094885	0.334346	8767.415039
8262.910615	0.094896	0.334346	8855.573242
8262.911572	0.094922	0.334346	8946.413086
8262.912491	0.094889	0.334346	9033.616211
8262.913370	0.094933	0.334346	9117.062500
8263.895610	1.150931	0.452493	630.710388
8263.896577	1.532963	0.452493	2113.085205
8263.897449	1.512872	0.452493	3432.310059
8263.898322	1.472424	0.452493	4717.736328
8263.899468	1.426509	0.452493	6352.515625
8263.900342	1.389170	0.452493	7566.650391
8263.901218	0.851030	0.452493	8312.153320
8263.902237	0.102213	0.452493	8416.308594
8263.903212	0.094940	0.452493	8508.875000
8263.904090	0.094999	0.452493	8592.284180
8263.904948	0.094944	0.452493	8673.746094
8263.906050	0.094984	0.452493	8778.418945
8263.906947	0.094944	0.452493	8863.583984
8263.907821	0.094852	0.452493	8946.485352
8263.908833	0.094973	0.452493	9042.598633
8263.909819	0.094896	0.452493	9136.166016
8263.910703	0.094955	0.452493	9220.106445
8264.918548	1.109224	0.361400	554.611816
8264.919568	1.532472	0.361400	2117.733154
8264.920443	1.512473	0.361400	3441.147217
8264.921413	1.470205	0.361400	4867.246094
8264.922474	1.424630	0.361400	6378.778809
8264.923394	1.386434	0.361400	7654.298340
8264.924266	0.739947	0.361400	8299.532227
8264.925345	0.097500	0.361400	8404.734375
8264.926336	0.094893	0.361400	8498.772461
8264.927224	0.094944	0.361400	8583.083008
8264.928206	0.095054	0.361400	8676.425781
8264.929260	0.094969	0.361400	8776.523437
8264.930163	0.094922	0.361400	8862.238281
8264.931028	0.094988	0.361400	8944.402344
8264.932116	0.095046	0.361400	9047.812500
8264.933078	0.094867	0.361400	9139.074219
8264.933955	0.094904	0.361400	9222.304687
8265.927610	1.025457	0.389486	431.717194
8265.928611	1.525276	0.389486	1958.518433
8265.929614	1.511594	0.389486	3474.647461
8265.930499	1.472520	0.389486	4777.827148
8265.931360	1.433741	0.389486	6012.278320
8265.932470	1.390107	0.389486	7555.297363
8265.933365	0.815002	0.389486	8284.724609
8265.934245	0.105297	0.389486	8377.385742
8265.935238	0.094896	0.389486	8471.618164
8265.936235	0.094841	0.389486	8566.174805
8265.937127	0.094852	0.389486	8650.783203
8265.938002	0.094885	0.389486	8733.807617
8265.938983	0.094889	0.389486	8826.893555
8265.939925	0.094896	0.389486	8916.286133
8265.940849	0.094915	0.389486	9003.987305
8265.941711	0.094977	0.389486	9085.857422
8265.942735	0.094911	0.389486	9183.045898
8266.941386	1.041984	0.375963	454.304840
8266.942251	1.524038	0.375963	1772.597778
8266.943210	1.518032	0.375963	3228.390625
8266.944150	1.477002	0.375963	4616.772461
8266.945037	1.438718	0.375963	5892.915527
8266.945922	1.401533	0.375963	7133.272461
8266.946879	1.101240	0.375963	8187.159180
8266.947835	0.136487	0.375963	8317.640625
8266.948727	0.094761	0.375963	8402.166992
8266.949659	0.094940	0.375963	8490.651367
8266.950609	0.094969	0.375963	8580.872070
8266.951534	0.094926	0.375963	8668.677734
8266.952391	0.094984	0.375963	8750.079102
8266.953305	0.094929	0.375963	8836.844727
8266.954266	0.094958	0.375963	8928.099609
8266.955196	0.094944	0.375963	9016.397461
8266.956056	0.094944	0.375963	9098.048828
8267.956682	1.047301	0.400270	456.623199
8267.957552	1.524558	0.400270	1782.988647
8267.958602	1.514227	0.400270	3372.927246
8267.959563	1.472358	0.400270	4787.863770
8267.960440	1.434309	0.400270	6045.752930
8267.961362	1.395494	0.400270	7332.398437
8267.962452	0.795000	0.400270	8198.948242
8267.963337	0.103978	0.400270	8290.968750
8267.964195	0.094841	0.400270	8372.342773
8267.965208	0.094966	0.400270	8468.542969
8267.966173	0.094889	0.400270	8560.110352
8267.967047	0.094889	0.400270	8643.042969
8267.967907	0.094926	0.400270	8724.678711
8267.969014	0.094944	0.400270	8829.781250
8267.969918	0.094889	0.400270	8915.560547
8267.970779	0.094973	0.400270	8997.332031
8267.971848	0.094991	0.400270	9098.877930
8268.963330	1.093868	0.411545	532.713928
8268.964225	1.528378	0.411545	1900.611816
8268.965097	1.518435	0.411545	3224.687012
8268.966012	1.478577	0.411545	4577.584961
8268.966968	1.437140	0.411545	5951.490723
8268.967893	1.398666	0.411545	7245.256836
8268.968774	1.123986	0.411545	8235.488281
8268.969706	0.139135	0.411545	8365.162109
8268.970647	0.094808	0.411545	8454.376953
8268.971572	0.094915	0.411545	8542.172852
8268.972434	0.094907	0.411545	8623.982422
8268.973398	0.094955	0.411545	8715.518555
8268.974333	0.094849	0.411545	8804.202148
8268.975216	0.094969	0.411545	8888.060547
8268.976106	0.094933	0.411545	8972.550781
8268.977057	0.094896	0.411545	9062.796875
8268.977987	0.094926	0.411545	9151.077148
