time (s)	coil I (A)	last det (V)	int current (uC)
7827.500523	1.082805	0.316283	489.427917
7827.501403	1.526594	0.316283	1832.830811
7827.502411	1.516230	0.316283	3361.191162
7827.503420	1.471659	0.316283	4846.095215
7827.504318	1.433313	0.316283	6133.210449
7827.505185	1.395894	0.316283	7343.450195
7827.506298	0.758892	0.316283	8188.096680
7827.507209	0.101166	0.316283	8280.258789
7827.508081	0.094882	0.316283	8362.995117
7827.509076	0.094988	0.316283	8457.507812
7827.510077	0.094977	0.316283	8552.580078
7827.510955	0.094977	0.316283	8635.969727
7827.511813	0.094962	0.316283	8717.447266
7827.512891	0.094962	0.316283	8819.816406
7827.513800	0.094915	0.316283	8906.093750
7827.514665	0.094980	0.316283	8988.251953
7827.515629	0.095010	0.316283	9079.841797
7828.469782	1.099369	0.354218	566.174988
7828.470683	1.529403	0.354218	1944.167236
7828.471611	1.516355	0.354218	3351.344727
7828.472481	1.477756	0.354218	4636.992676
7828.473477	1.435005	0.354218	6066.257812
7828.474398	1.396879	0.354218	7352.783203
7828.475276	1.049249	0.354218	8274.024414
7828.476280	0.125171	0.354218	8399.696289
7828.477198	0.094852	0.354218	8486.770508
7828.478111	0.094969	0.354218	8573.477539
7828.479004	0.094980	0.354218	8658.294922
7828.479958	0.094966	0.354218	8748.892578
7828.480878	0.094955	0.354218	8836.250977
7828.481794	0.095032	0.354218	8923.299805
7828.482655	0.094948	0.354218	9005.049805
7828.483642	0.094940	0.354218	9098.755859
7828.484561	0.094922	0.354218	9185.989258
7829.479911	1.054102	0.410058	495.427734
7829.480878	1.528993	0.410058	1973.963867
7829.481806	1.515286	0.410058	3380.148926
7829.482688	1.476504	0.410058	4682.425293
7829.483596	1.438070	0.410058	5988.192871
7829.484536	1.398160	0.410058	7302.463867
7829.485485	0.998954	0.410058	8250.470703
7829.486353	0.127573	0.410058	8361.204102
7829.487263	0.094863	0.410058	8447.529297
7829.488212	0.094904	0.410058	8537.592773
7829.489128	0.094922	0.410058	8624.541016
7829.490003	0.094926	0.410058	8707.600586
7829.490969	0.094944	0.410058	8799.316406
7829.491911	0.094977	0.410058	8888.784180
7829.492794	0.094991	0.410058	8972.662109
7829.493675	0.094929	0.410058	9056.294922
7829.494624	0.094955	0.410058	9146.407227
7830.513109	1.061550	0.323466	475.574524
7830.513987	1.525232	0.323466	1814.728271
7830.514858	1.521973	0.323466	3140.366455
7830.515862	1.479661	0.323466	4625.945801
7830.516802	1.438052	0.323466	5977.714355
7830.517726	1.399819	0.323466	7271.147461
7830.518594	1.106946	0.323466	8231.976562
7830.519637	0.124299	0.323466	8361.621094
7830.520511	0.094764	0.323466	8444.445312
7830.521382	0.094896	0.323466	8527.099609
7830.522325	0.094915	0.323466	8616.604492
7830.523282	0.094863	0.323466	8707.388672
7830.524198	0.094896	0.323466	8794.313477
7830.525075	0.094893	0.323466	8877.534180
7830.526118	0.094929	0.323466	8976.544922
7830.527010	0.094893	0.323466	9061.189453
7830.527882	0.094951	0.323466	9143.987305
7831.502849	1.093605	0.398928	534.772766
7831.503738	1.527898	0.398928	1893.073975
7831.504689	1.516864	0.398928	3335.611572
7831.505729	1.471509	0.398928	4865.980469
7831.506661	1.431163	0.398928	6199.824707
7831.507525	1.394659	0.398928	7404.810547
7831.508584	0.760979	0.398928	8210.687500
7831.509599	0.098844	0.398928	8311.013672
7831.510475	0.094871	0.398928	8394.120117
7831.511448	0.094958	0.398928	8486.514648
7831.512491	0.094984	0.398928	8585.583008
7831.513390	0.094918	0.398928	8670.914062
7831.514258	0.094951	0.398928	8753.332031
7831.515295	0.094951	0.398928	8851.796875
7831.516294	0.094933	0.398928	8946.634766
7831.517187	0.094977	0.398928	9031.449219
7831.518163	0.094973	0.398928	9124.142578
7832.506297	1.036414	0.485488	437.366516
7832.507285	1.526960	0.485488	1946.003418
7832.508233	1.515612	0.485488	3382.803223
7832.509110	1.476929	0.485488	4678.069824
7832.510030	1.436971	0.485488	6000.083496
7832.510975	1.397911	0.485488	7321.109863
7832.511915	1.012595	0.485488	8272.949219
7832.512788	0.127255	0.485488	8384.042969
7832.513762	0.094940	0.485488	8476.514648
7832.514692	0.094907	0.485488	8564.778320
7832.515602	0.094955	0.485488	8651.187500
7832.516462	0.094904	0.485488	8732.804687
7832.517438	0.094951	0.485488	8825.476562
7832.518395	0.094937	0.485488	8916.331055
7832.519265	0.094878	0.485488	8998.875000
7832.520178	0.094980	0.485488	9085.591797
7832.521118	0.094911	0.485488	9174.807617
7833.612357	1.149155	0.400523	645.825256
7833.613265	1.531930	0.400523	2036.817627
7833.614202	1.513663	0.400523	3455.120117
7833.615071	1.473673	0.400523	4735.742187
7833.616109	1.430691	0.400523	6220.799316
7833.616990	1.393455	0.400523	7448.432617
7833.617904	0.909858	0.400523	8280.042969
7833.618776	0.113994	0.400523	8379.446289
7833.619761	0.094838	0.400523	8472.861328
7833.620682	0.094867	0.400523	8560.233398
7833.621555	0.094977	0.400523	8643.148437
7833.622570	0.094808	0.400523	8739.378906
7833.623463	0.094882	0.400523	8824.108398
7833.624385	0.094900	0.400523	8911.606445
7833.625246	0.094926	0.400523	8993.336914
7833.626226	0.094951	0.400523	9086.388672
7833.627142	0.094926	0.400523	9173.340820
7834.495414	1.019839	0.418349	430.371979
7834.496326	1.521416	0.418349	1817.903442
7834.497292	1.518094	0.418349	3284.382812
7834.498218	1.477844	0.418349	4652.866699
7834.499090	1.439806	0.418349	5908.377441
7834.500034	1.400061	0.418349	7230.035156
7834.500977	1.040277	0.418349	8211.016602
7834.501892	0.131232	0.418349	8331.093750
7834.502771	0.094863	0.418349	8414.478516
7834.503724	0.094962	0.418349	8504.977539
7834.504671	0.094918	0.418349	8594.865234
7834.505559	0.094907	0.418349	8679.142578
7834.506469	0.094984	0.418349	8765.578125
7834.507386	0.094907	0.418349	8852.608398
7834.508331	0.094896	0.418349	8942.285156
7834.509213	0.094933	0.418349	9026.015625
7834.510137	0.094918	0.418349	9113.719727
7835.606474	1.050447	0.377957	455.893890
7835.607354	1.524020	0.377957	1797.031372
7835.608459	1.512008	0.377957	3467.800293
7835.609435	1.469692	0.377957	4902.220215
7835.610309	1.432240	0.377957	6153.998047
7835.611324	1.389972	0.377957	7564.819336
7835.612373	0.617926	0.377957	8213.023437
7835.613265	0.097976	0.377957	8300.417969
7835.614196	0.094838	0.377957	8388.711914
7835.615261	0.094911	0.377957	8489.791992
7835.616201	0.094904	0.377957	8579.000977
7835.617063	0.094929	0.377957	8660.830078
7835.618105	0.094958	0.377957	8759.776367
7835.619123	0.094900	0.377957	8856.384766
7835.620015	0.094933	0.377957	8941.064453
7835.620965	0.095024	0.377957	9031.337891
7835.622015	0.095006	0.377957	9131.094727
7836.613058	1.027324	0.463530	439.694763
7836.613930	1.523108	0.463530	1767.844727
7836.614794	1.520892	0.463530	3081.895508
7836.615840	1.477947	0.463530	4627.827637
7836.616721	1.439520	0.463530	5896.044922
7836.617597	1.403027	0.463530	7125.096680
7836.618601	1.061646	0.463530	8190.988770
7836.619513	0.135172	0.463530	8314.265625
7836.620424	0.094933	0.463530	8400.749023
7836.621301	0.094966	0.463530	8484.034180
7836.622324	0.094926	0.463530	8581.142578
7836.623212	0.094951	0.463530	8665.458984
7836.624086	0.095017	0.463530	8748.503906
7836.625025	0.094958	0.463530	8837.669922
7836.626005	0.094874	0.463530	8930.646484
7836.626927	0.094885	0.463530	9018.130859
7836.627792	0.094882	0.463530	9100.203125
7837.605814	1.021099	0.558051	429.882507
7837.606738	1.521702	0.558051	1835.934814
7837.607705	1.517428	0.558051	3303.287598
7837.608644	1.476292	0.558051	4689.525391
7837.609507	1.438619	0.558051	5931.053711
7837.610492	1.397446	0.558051	7307.538086
7837.611443	0.973249	0.558051	8233.098633
7837.612375	0.118795	0.558051	8343.815430
7837.613230	0.094878	0.558051	8424.936523
7837.614175	0.095010	0.558051	8514.720703
7837.615115	0.094969	0.558051	8603.992187
7837.616002	0.094955	0.558051	8688.216797
7837.616910	0.094969	0.558051	8774.449219
7837.617833	0.094969	0.558051	8862.106445
7837.618762	0.094966	0.558051	8950.330078
7837.619646	0.094984	0.558051	9034.295898
7837.620659	0.095050	0.558051	9130.582031
7838.632895	1.029818	0.573314	438.702484
7838.633803	1.522423	0.573314	1821.062744
7838.634887	1.512177	0.573314	3460.262207
7838.635856	1.470070	0.573314	4884.759766
7838.636721	1.432628	0.573314	6123.983398
7838.637767	1.389467	0.573314	7577.365234
7838.638797	0.625313	0.573314	8221.437500
7838.639677	0.098683	0.573314	8308.278320
7838.640621	0.094937	0.573314	8397.898437
7838.641679	0.095054	0.573314	8498.464844
7838.642616	0.094980	0.573314	8587.461914
7838.643477	0.094984	0.573314	8669.243164
7838.644526	0.095010	0.573314	8768.908203
7838.645538	0.094929	0.573314	8864.976562
7838.646411	0.094977	0.573314	8947.891602
7838.647365	0.095043	0.573314	9038.562500
7838.648426	0.095035	0.573314	9139.395508
7839.619524	1.030177	0.568392	441.945923
7839.620388	1.521526	0.568392	1756.544312
7839.621447	1.515004	0.568392	3360.933105
7839.622409	1.473475	0.568392	4778.416504
7839.623283	1.435082	0.568392	6032.677734
7839.624190	1.396860	0.568392	7299.629883
7839.625276	0.834983	0.568392	8206.420898
7839.626146	0.107439	0.568392	8299.892578
7839.627009	0.094948	0.568392	8381.832031
7839.628030	0.095032	0.568392	8478.859375
7839.628994	0.094962	0.568392	8570.403320
7839.629873	0.094984	0.568392	8653.894531
7839.630732	0.094918	0.568392	8735.429687
7839.631845	0.094977	0.568392	8841.138672
7839.632748	0.094900	0.568392	8926.833008
7839.633613	0.094929	0.568392	9008.946289
7839.634684	0.095043	0.568392	9110.737305
7840.681535	1.120466	0.473464	626.340698
7840.682454	1.532146	0.473464	2034.382812
7840.683365	1.513835	0.473464	3413.486816
7840.684244	1.474336	0.473464	4709.428223
7840.685268	1.431222	0.473464	6174.999512
7840.686168	1.393799	0.473464	7429.418457
7840.687055	0.963728	0.473464	8284.245117
7840.688008	0.120579	0.473464	8399.156250
7840.688972	0.094889	0.473464	8490.628906
7840.689890	0.094922	0.473464	8577.767578
7840.690754	0.094878	0.473464	8659.742187
7840.691793	0.094940	0.473464	8758.384766
7840.692671	0.094944	0.473464	8841.745117
7840.693574	0.094867	0.473464	8927.410156
7840.694434	0.094911	0.473464	9009.033203
7840.695443	0.094926	0.473464	9104.813477
7840.696390	0.094900	0.473464	9194.683594
7841.646523	1.031836	0.540882	438.530273
7841.647565	1.528334	0.540882	2031.054077
7841.648587	1.509119	0.540882	3573.373535
7841.649480	1.470135	0.540882	4886.204590
7841.650452	1.428853	0.540882	6275.049316
7841.651508	1.384911	0.540882	7737.515137
7841.652428	0.613136	0.540882	8301.600586
7841.653285	0.099269	0.540882	8386.673828
7841.654355	0.094991	0.540882	8488.314453
7841.655346	0.094878	0.540882	8582.338867
7841.656229	0.094933	0.540882	8666.165039
7841.657084	0.095054	0.540882	8747.435547
7841.658170	0.095010	0.540882	8850.616211
7841.659074	0.094878	0.540882	8936.385742
7841.659952	0.094973	0.540882	9019.772461
7841.660925	0.095010	0.540882	9112.216797
7841.661924	0.094911	0.540882	9207.033203
7842.701818	1.097626	0.551356	516.981689
7842.702701	1.526876	0.551356	1865.213379
7842.703564	1.519160	0.551356	3176.248535
7842.704646	1.473713	0.551356	4770.806641
7842.705578	1.433306	0.551356	6106.647461
7842.706452	1.396681	0.551356	7327.346680
7842.707425	0.922024	0.551356	8224.475586
7842.708450	0.104755	0.551356	8331.848633
7842.709329	0.094863	0.551356	8415.233398
7842.710193	0.094885	0.551356	8497.213867
7842.711238	0.094937	0.551356	8596.422852
7842.712182	0.094775	0.551356	8685.890625
7842.713063	0.094937	0.551356	8769.529297
7842.714006	0.094904	0.551356	8859.023437
7842.715043	0.094966	0.551356	8957.502930
7842.715936	0.094889	0.551356	9042.238281
7842.716798	0.094911	0.551356	9124.051758
7843.683882	1.133837	0.608953	596.398071
7843.684916	1.532043	0.608953	2180.531006
7843.685808	1.510276	0.608953	3527.697021
7843.686744	1.469334	0.608953	4902.993164
7843.687818	1.423176	0.608953	6431.484375
7843.688774	1.383937	0.608953	7754.527832
7843.689651	0.648794	0.608953	8323.520508
7843.690712	0.096669	0.608953	8426.085937
7843.691713	0.094966	0.608953	8521.146484
7843.692607	0.094944	0.608953	8606.026367
7843.693569	0.094962	0.608953	8697.379883
7843.694612	0.094966	0.608953	8796.429687
7843.695524	0.094933	0.608953	8883.008789
7843.696385	0.094955	0.608953	8964.764648
7843.697455	0.095024	0.608953	9066.440430
7843.698452	0.094933	0.608953	9161.088867
7843.699329	0.094907	0.608953	9244.322266
7844.723131	1.025120	0.648486	432.600433
7844.724142	1.526924	0.648486	1976.320435
7844.725113	1.511638	0.648486	3444.121094
7844.726041	1.471791	0.648486	4809.942871
7844.726907	1.432928	0.648486	6050.858887
7844.728020	1.388954	0.648486	7596.764648
7844.728935	0.766198	0.648486	8297.834961
7844.729799	0.103524	0.648486	8387.280273
7844.730843	0.094977	0.648486	8486.436523
7844.731806	0.094878	0.648486	8577.803711
7844.732730	0.094900	0.648486	8665.491211
7844.733591	0.094980	0.648486	8747.269531
7844.734663	0.094958	0.648486	8849.065430
7844.735548	0.094904	0.648486	8933.054687
7844.736418	0.094896	0.648486	9015.614258
7844.737413	0.094955	0.648486	9110.094727
7844.738399	0.094907	0.648486	9203.672852
7845.708740	1.043452	0.620695	452.858215
7845.709622	1.523134	0.620695	1796.261963
7845.710605	1.516798	0.620695	3287.274414
7845.711607	1.473223	0.620695	4763.443359
7845.712504	1.434390	0.620695	6050.090820
7845.713370	1.397051	0.620695	7259.936523
7845.714474	0.837792	0.620695	8184.858398
7845.715375	0.105765	0.620695	8280.153320
7845.716239	0.094856	0.620695	8362.108398
7845.717247	0.094944	0.620695	8457.811523
7845.718243	0.094893	0.620695	8552.324219
7845.719117	0.094907	0.620695	8635.273437
7845.719981	0.094907	0.620695	8717.273437
7845.721033	0.094915	0.620695	8817.124023
7845.721958	0.094882	0.620695	8904.889648
7845.722833	0.094977	0.620695	8987.994141
7845.723790	0.095013	0.620695	9078.921875
7846.769592	1.022003	0.602342	430.263336
7846.770629	1.527191	0.602342	2013.960571
7846.771596	1.511397	0.602342	3475.480957
7846.772519	1.471399	0.602342	4833.582031
7846.773385	1.431991	0.602342	6073.686523
7846.774510	1.388738	0.602342	7636.016602
7846.775398	0.773829	0.602342	8323.176758
7846.776260	0.103455	0.602342	8412.354492
7846.777122	0.094849	0.602342	8494.114258
7846.778173	0.094834	0.602342	8593.785156
7846.779067	0.094860	0.602342	8678.589844
7846.779945	0.094915	0.602342	8761.924805
7846.780924	0.094991	0.602342	8854.921875
7846.781862	0.094878	0.602342	8943.916992
7846.782782	0.094849	0.602342	9031.177734
7846.783645	0.094893	0.602342	9113.070312
7846.784671	0.094900	0.602342	9210.437500
7847.741892	1.044012	0.647044	451.013367
7847.742765	1.522504	0.647044	1780.158936
7847.743758	1.516446	0.647044	3285.990234
7847.744756	1.473201	0.647044	4756.244629
7847.745651	1.434628	0.647044	6040.236328
7847.746517	1.397102	0.647044	7250.126953
7847.747624	0.842021	0.647044	8182.244629
7847.748531	0.105245	0.647044	8277.702148
7847.749406	0.094845	0.647044	8360.691406
7847.750394	0.094962	0.647044	8454.513672
7847.751391	0.094951	0.647044	8549.179687
7847.752274	0.095017	0.647044	8633.080078
7847.753130	0.094988	0.647044	8714.389648
7847.754211	0.095057	0.647044	8817.146484
7847.755124	0.094962	0.647044	8903.846680
7847.756025	0.094955	0.647044	8989.401367
7847.756894	0.094929	0.647044	9071.894531
7848.767927	1.020762	0.674203	429.740692
7848.768849	1.521541	0.674203	1832.601074
7848.769786	1.517655	0.674203	3254.643799
7848.770720	1.477101	0.674203	4634.255859
7848.771602	1.438843	0.674203	5903.315430
7848.772567	1.397523	0.674203	7251.925293
7848.773542	0.993369	0.674203	8220.459961
7848.774472	0.119106	0.674203	8331.228516
7848.775334	0.094794	0.674203	8412.940430
7848.776304	0.094834	0.674203	8504.929687
7848.777242	0.094878	0.674203	8593.924805
7848.778111	0.094918	0.674203	8676.409180
7848.778998	0.094918	0.674203	8760.601562
7848.780104	0.094955	0.674203	8865.622070
7848.781123	0.094896	0.674203	8962.321289
7848.782014	0.094991	0.674203	9046.958984
7848.782955	0.094863	0.674203	9136.225586
7849.783821	1.100570	0.670344	556.888489
7849.784753	1.529920	0.670344	1982.773437
7849.785625	1.516014	0.670344	3304.738037
7849.786671	1.470626	0.670344	4843.012695
7849.787698	1.426816	0.670344	6308.353027
7849.788597	1.389265	0.670344	7557.302246
7849.789548	0.762422	0.670344	8282.365234
7849.790585	0.098635	0.670344	8384.650391
7849.791515	0.094951	0.670344	8472.955078
7849.792376	0.094944	0.670344	8554.702148
7849.793425	0.094955	0.670344	8654.309570
7849.794439	0.094889	0.670344	8750.527344
7849.795315	0.094988	0.670344	8833.736328
7849.796291	0.095002	0.670344	8926.458984
7849.797336	0.094933	0.670344	9025.664062
7849.798242	0.094988	0.670344	9111.722656
7849.799100	0.094940	0.670344	9193.181641
7850.766925	1.141446	0.743599	623.229797
7850.767893	1.531816	0.743599	2106.028076
7850.768758	1.513184	0.743599	3414.931885
7850.769638	1.472725	0.743599	4710.929687
7850.770744	1.427340	0.743599	6289.567871
7850.771654	1.389503	0.743599	7554.015625
7850.772526	0.865902	0.743599	8309.082031
7850.773569	0.101766	0.743599	8415.224609
7850.774545	0.094889	0.743599	8507.835937
7850.775421	0.094948	0.743599	8591.009766
7850.776278	0.094995	0.743599	8672.420898
7850.777380	0.095002	0.743599	8777.113281
7850.778280	0.094955	0.743599	8862.572266
7850.779153	0.094929	0.743599	8945.445312
7850.780151	0.094955	0.743599	9040.209961
7850.781132	0.094904	0.743599	9133.310547
7850.782016	0.094937	0.743599	9217.234375
7851.844573	1.056412	0.408286	473.272736
7851.845458	1.524800	0.408286	1822.720581
7851.846329	1.520746	0.408286	3147.290283
7851.847272	1.480503	0.408286	4543.404297
7851.848222	1.437861	0.408286	5909.372559
7851.849156	1.399076	0.408286	7216.109375
7851.850051	1.134152	0.408286	8231.174805
7851.850971	0.149370	0.408286	8368.595703
7851.851928	0.094779	0.408286	8459.298828
7851.852847	0.094988	0.408286	8546.592773
7851.853711	0.095013	0.408286	8628.684570
7851.854677	0.094926	0.408286	8720.382812
7851.855627	0.094940	0.408286	8810.576172
7851.856513	0.095017	0.408286	8894.761719
7851.857376	0.094878	0.408286	8976.641602
7851.858322	0.094874	0.408286	9066.392578
7851.859271	0.094896	0.408286	9156.449219
7852.786133	1.050765	0.790239	467.590607
7852.787009	1.523287	0.790239	1801.990234
7852.787873	1.520519	0.790239	3115.718506
7852.788831	1.480049	0.790239	4533.605469
7852.789770	1.438876	0.790239	5884.709961
7852.790678	1.400446	0.790239	7156.314453
7852.791567	1.130369	0.790239	8161.211914
7852.792540	0.149403	0.790239	8306.581055
7852.793487	0.094830	0.790239	8396.385742
7852.794373	0.094937	0.790239	8480.499023
7852.795290	0.094973	0.790239	8567.589844
7852.796216	0.094973	0.790239	8655.535156
7852.797143	0.094991	0.790239	8743.591797
7852.798005	0.094885	0.790239	8825.382812
7852.798966	0.094926	0.790239	8916.606445
7852.799912	0.094907	0.790239	9006.388672
7852.800786	0.094955	0.790239	9089.378906
7853.874637	1.052212	0.487434	460.868866
7853.875524	1.524503	0.487434	1813.103149
7853.876388	1.521335	0.487434	3127.536865
7853.877378	1.479306	0.487434	4592.049316
7853.878267	1.440165	0.487434	5872.355957
7853.879178	1.402108	0.487434	7149.676270
7853.880051	1.196367	0.487434	8194.104492
7853.881019	0.159833	0.487434	8348.822266
7853.881939	0.094805	0.487434	8436.042969
7853.882833	0.094944	0.487434	8520.922852
7853.883694	0.094893	0.487434	8602.625000
7853.884672	0.094951	0.487434	8695.487305
7853.885622	0.095006	0.487434	8785.743164
7853.886514	0.094980	0.487434	8870.465820
7853.887442	0.094962	0.487434	8958.590820
7853.888398	0.094893	0.487434	9049.308594
7853.889277	0.094991	0.487434	9132.805664
7854.845374	1.035751	0.509622	442.265564
7854.846240	1.521951	0.509622	1760.274902
7854.847321	1.513905	0.509622	3396.806152
7854.848215	1.474497	0.509622	4715.006836
7854.849095	1.436865	0.509622	5979.448242
7854.850102	1.395652	0.509622	7384.869629
7854.851046	0.929780	0.509622	8262.582031
7854.851958	0.113782	0.509622	8366.350586
7854.852821	0.094951	0.509622	8448.292969
7854.853858	0.094958	0.509622	8546.764648
7854.854736	0.094926	0.509622	8630.109375
7854.855611	0.094929	0.509622	8713.172852
7854.856554	0.094911	0.509622	8802.673828
7854.857527	0.094915	0.509622	8895.025391
7854.858433	0.094966	0.509622	8981.064453
7854.859311	0.094977	0.509622	9064.454102
7854.860362	0.095050	0.509622	9164.351562
7855.873992	1.042009	0.677313	453.274017
7855.874870	1.523430	0.677313	1790.845703
7855.875736	1.519259	0.677313	3106.523926
7855.876843	1.473582	0.677313	4737.778809
7855.877755	1.434053	0.677313	6045.634766
7855.878637	1.397454	0.677313	7278.188965
7855.879638	0.927535	0.677313	8206.652344
7855.880641	0.104550	0.677313	8311.515625
7855.881534	0.094808	0.677313	8396.179687
7855.882399	0.094944	0.677313	8478.305664
7855.883482	0.094823	0.677313	8580.999023
7855.884400	0.094896	0.677313	8668.113281
7855.885269	0.094896	0.677313	8750.578125
7855.886261	0.094995	0.677313	8844.813477
7855.887261	0.094915	0.677313	8939.728516
7855.888139	0.094849	0.677313	9023.005859
7855.889004	0.094841	0.677313	9105.043945
7856.901084	1.051696	0.731353	465.901154
7856.901959	1.523562	0.731353	1799.017944
7856.902824	1.520585	0.731353	3114.323730
7856.903801	1.478064	0.731353	4558.392090
7856.904713	1.438488	0.731353	5870.292969
7856.905643	1.400328	0.731353	7172.598145
7856.906511	1.142146	0.731353	8163.980957
7856.907516	0.141654	0.731353	8306.343750
7856.908446	0.094764	0.731353	8394.474609
7856.909310	0.094907	0.731353	8476.474609
7856.910324	0.094896	0.731353	8572.699219
7856.911205	0.094838	0.731353	8656.250977
7856.912120	0.094889	0.731353	8743.074219
7856.912987	0.094867	0.731353	8825.324219
7856.913949	0.094882	0.731353	8916.600586
7856.914872	0.094893	0.731353	9004.186523
7856.915761	0.094885	0.731353	9088.539062
7857.894883	1.041636	0.777131	461.444641
7857.895763	1.523375	0.777131	1802.014893
7857.896700	1.518380	0.777131	3224.736816
7857.897625	1.476874	0.777131	4590.845215
7857.898553	1.436909	0.777131	5924.296875
7857.899447	1.400120	0.777131	7176.003906
7857.900361	1.111498	0.777131	8191.913086
7857.901334	0.136926	0.777131	8325.142578
7857.902250	0.094834	0.777131	8412.010742
7857.903110	0.094929	0.777131	8493.649414
7857.904078	0.094904	0.777131	8585.515625
7857.905010	0.094878	0.777131	8673.941406
7857.905917	0.094889	0.777131	8760.005859
7857.906773	0.094918	0.777131	8841.255859
7857.907728	0.094878	0.777131	8931.864258
7857.908675	0.094871	0.777131	9021.707031
7857.909563	0.094904	0.777131	9105.981445
7858.896832	1.025720	0.849560	433.879669
7858.897776	1.522031	0.849560	1870.677246
7858.898724	1.515802	0.849560	3307.657715
7858.899635	1.475508	0.849560	4651.845215
7858.900512	1.437667	0.849560	5912.679199
7858.901462	1.398805	0.849560	7241.543945
7858.902391	1.036575	0.849560	8204.521484
7858.903321	0.126357	0.849560	8322.034180
7858.904185	0.094772	0.849560	8403.916992
7858.905150	0.094838	0.849560	8495.435547
7858.906096	0.094871	0.849560	8585.183594
7858.906982	0.094878	0.849560	8669.245117
7858.907902	0.094863	0.849560	8756.519531
7858.908843	0.094838	0.849560	8845.761719
7858.909768	0.094882	0.849560	8933.527344
7858.910642	0.094937	0.849560	9016.501953
7858.911553	0.094882	0.849560	9102.939453
7859.952113	1.096322	0.566232	518.560303
7859.952993	1.526543	0.566232	1861.918213
7859.953940	1.516538	0.566232	3298.079834
7859.954905	1.474955	0.566232	4721.411133
7859.955812	1.435038	0.566232	6022.990234
7859.956696	1.398259	0.566232	7259.051270
7859.957647	1.031957	0.566232	8240.442383
7859.958599	0.121783	0.566232	8356.379883
7859.959490	0.094904	0.566232	8440.938477
7859.960398	0.094929	0.566232	8527.133789
7859.961320	0.094955	0.566232	8614.682617
7859.962247	0.094918	0.566232	8702.671875
7859.963130	0.094969	0.566232	8786.530273
7859.964058	0.094926	0.566232	8874.621094
7859.964991	0.094816	0.566232	8963.083984
7859.965893	0.094874	0.566232	9048.660156
7859.966777	0.094958	0.566232	9132.603516
7860.917705	1.043390	0.873867	450.744446
7860.918572	1.521749	0.873867	1770.101074
7860.919577	1.516322	0.873867	3294.004883
7860.920487	1.476006	0.873867	4637.170410
7860.921390	1.436646	0.873867	5934.461426
7860.922273	1.399299	0.873867	7170.042969
7860.923317	0.990062	0.873867	8203.667969
7860.924211	0.121479	0.873867	8312.270508
7860.925082	0.094874	0.873867	8394.906250
7860.926047	0.094973	0.873867	8486.555664
7860.926999	0.094900	0.873867	8576.900391
7860.927921	0.094915	0.873867	8664.411133
7860.928787	0.094904	0.873867	8746.597656
7860.929824	0.094955	0.873867	8845.065430
7860.930709	0.094882	0.873867	8929.035156
7860.931583	0.094937	0.873867	9012.009766
7860.932499	0.094969	0.873867	9099.001953
7861.959133	1.044097	0.605561	480.284424
7861.960024	1.525616	0.605561	1839.608643
7861.960944	1.518680	0.605561	3236.794678
7861.961868	1.477247	0.605561	4601.770996
7861.962824	1.436671	0.605561	5975.228516
7861.963707	1.399475	0.605561	7210.964844
7861.964611	1.086643	0.605561	8193.290039
7861.965568	0.137194	0.605561	8324.583984
7861.966495	0.094768	0.605561	8412.433594
7861.967369	0.094900	0.605561	8495.375977
7861.968343	0.094867	0.605561	8587.776367
7861.969263	0.094860	0.605561	8675.046875
7861.970133	0.094882	0.605561	8757.593750
7861.971147	0.094882	0.605561	8853.803711
7861.972089	0.094834	0.605561	8943.137695
7861.973017	0.094805	0.605561	9031.116211
7861.973878	0.094805	0.605561	9112.743164
7862.980060	1.056339	0.540101	472.183594
7862.980934	1.524485	0.540101	1804.583252
7862.981850	1.518417	0.540101	3195.453125
7862.982921	1.473406	0.540101	4773.470703
7862.983800	1.434661	0.540101	6034.537109
7862.984664	1.398417	0.540101	7242.769043
7862.985687	0.923972	0.540101	8187.992676
7862.986657	0.107274	0.540101	8292.048828
7862.987534	0.094757	0.540101	8375.150391
7862.988403	0.094819	0.540101	8457.548828
7862.989518	0.094830	0.540101	8563.284180
7862.990422	0.094779	0.540101	8648.964844
7862.991283	0.094863	0.540101	8730.642578
7862.992365	0.094819	0.540101	8833.237305
7862.993329	0.094830	0.540101	8924.653320
7862.994206	0.094786	0.540101	9007.781250
7862.995066	0.094838	0.540101	9089.341797
7863.969794	1.116852	0.720376	534.972046
7863.970730	1.528348	0.720376	1965.506104
7863.971658	1.514165	0.720376	3370.651367
7863.972527	1.475391	0.720376	4652.765625
7863.973526	1.433705	0.720376	6085.036621
7863.974446	1.395070	0.720376	7368.500488
7863.975329	1.030551	0.720376	8278.476562
7863.976243	0.132056	0.720376	8399.175781
7863.977177	0.094731	0.720376	8487.655273
7863.978099	0.094790	0.720376	8575.051758
7863.978984	0.094849	0.720376	8658.993164
7863.979889	0.094838	0.720376	8744.821289
7863.980851	0.094783	0.720376	8836.001953
7863.981773	0.094856	0.720376	8923.458984
7863.982635	0.094775	0.720376	9005.155273
7863.983594	0.094889	0.720376	9096.153320
7863.984511	0.094808	0.720376	9183.092773
7864.990656	1.033198	0.632466	441.175659
7864.991675	1.526202	0.632466	1996.375977
7864.992718	1.509477	0.632466	3570.760986
7864.993606	1.469513	0.632466	4875.688477
7864.994507	1.429911	0.632466	6164.038086
7864.995582	1.386193	0.632466	7654.195312
7864.996547	0.647014	0.632466	8278.564453
7864.997405	0.099353	0.632466	8363.809570
7864.998432	0.094856	0.632466	8461.226562
7864.999462	0.094794	0.632466	8558.864258
7865.000345	0.094874	0.632466	8642.638672
7865.001276	0.094918	0.632466	8731.007812
7865.002333	0.094948	0.632466	8831.367187
7865.003270	0.094874	0.632466	8920.264648
7865.004137	0.094882	0.632466	9002.527344
7865.005193	0.094863	0.632466	9102.703125
7865.006205	0.094823	0.632466	9198.664062
7866.039304	1.094908	0.712110	541.979614
7866.040178	1.527535	0.712110	1877.045532
7866.041072	1.516337	0.712110	3232.650391
7866.042176	1.469839	0.712110	4855.352539
7866.043131	1.428849	0.712110	6219.903320
7866.043997	1.392590	0.712110	7425.886719
7866.045044	0.743540	0.712110	8204.373047
7866.046054	0.098397	0.712110	8303.753906
7866.046931	0.094838	0.712110	8386.926758
7866.047872	0.094882	0.712110	8476.209961
7866.048918	0.094889	0.712110	8575.463867
7866.049852	0.094856	0.712110	8664.059570
7866.050710	0.094904	0.712110	8745.487305
7866.051754	0.094896	0.712110	8844.558594
7866.052771	0.094849	0.712110	8941.019531
7866.053653	0.094904	0.712110	9024.724609
7866.054600	0.094980	0.712110	9114.670898
7866.997238	1.062513	0.730330	500.443787
7866.998136	1.526898	0.730330	1871.598389
7866.999068	1.515666	0.730330	3284.199707
7866.999941	1.476998	0.730330	4573.619141
7867.000906	1.435675	0.730330	5959.045410
7867.001860	1.396769	0.730330	7291.562500
7867.002752	1.066106	0.730330	8242.529297
7867.003665	0.138201	0.730330	8368.706055
7867.004624	0.094772	0.730330	8459.591797
7867.005546	0.094860	0.730330	8547.052734
7867.006411	0.094856	0.730330	8629.103516
7867.007343	0.094830	0.730330	8717.485352
7867.008261	0.094900	0.730330	8804.603516
7867.009190	0.094871	0.730330	8892.738281
7867.010065	0.094871	0.730330	8975.750000
7867.011030	0.094823	0.730330	9067.253906
7867.011970	0.094841	0.730330	9156.404297
7868.057583	1.065245	0.692947	507.056763
7868.058679	1.530754	0.692947	2184.763672
7868.059619	1.507192	0.692947	3601.524414
7868.060503	1.468184	0.692947	4899.398437
7868.061439	1.428201	0.692947	6236.194336
7868.062493	1.384845	0.692947	7695.821289
7868.063400	0.666101	0.692947	8299.974609
7868.064265	0.099807	0.692947	8386.307617
7868.065330	0.094816	0.692947	8487.286133
7868.066281	0.094812	0.692947	8577.452148
7868.067159	0.094779	0.692947	8660.667969
7868.068070	0.094852	0.692947	8747.078125
7868.069120	0.094768	0.692947	8846.584961
7868.070000	0.094775	0.692947	8929.987305
7868.070857	0.094808	0.692947	9011.238281
7868.071889	0.094907	0.692947	9109.182617
7868.072838	0.094775	0.692947	9199.124023
7869.062154	1.097827	0.740336	552.207092
7869.063070	1.529048	0.740336	1952.814941
7869.063957	1.515696	0.740336	3297.237305
7869.064949	1.472904	0.740336	4758.358398
7869.065956	1.429222	0.740336	6197.585449
7869.066858	1.391777	0.740336	7452.968750
7869.067730	0.913209	0.740336	8249.287109
7869.068820	0.102887	0.740336	8361.433594
7869.069720	0.094764	0.740336	8446.721680
7869.070589	0.094812	0.740336	8529.113281
7869.071582	0.094841	0.740336	8623.291016
7869.072579	0.094731	0.740336	8717.738281
7869.073451	0.094830	0.740336	8800.430664
7869.074323	0.094797	0.740336	8883.093750
7869.075310	0.094852	0.740336	8976.712891
7869.076240	0.094757	0.740336	9064.836914
7869.077159	0.094779	0.740336	9151.938477
7870.059013	1.116079	0.828810	558.039551
7870.059905	1.527363	0.828810	1920.447632
7870.060774	1.516670	0.828810	3238.433594
7870.061855	1.470428	0.828810	4827.966797
7870.062811	1.429431	0.828810	6194.502930
7870.063695	1.392814	0.828810	7425.750000
7870.064656	0.862581	0.828810	8254.689453
7870.065676	0.101730	0.828810	8358.454102
7870.066554	0.094790	0.828810	8441.679687
7870.067412	0.094746	0.828810	8522.971680
7870.068471	0.094885	0.828810	8623.455078
7870.069406	0.094801	0.828810	8712.093750
7870.070272	0.094823	0.828810	8794.210937
7870.071193	0.094871	0.828810	8881.586914
7870.072246	0.094849	0.828810	8981.462891
7870.073140	0.094801	0.828810	9066.214844
7870.074005	0.094838	0.828810	9148.249023
7871.095769	1.066465	0.693386	476.709747
7871.096654	1.525067	0.693386	1826.394043
7871.097515	1.518376	0.693386	3133.716309
7871.098629	1.473014	0.693386	4774.653809
7871.099521	1.433262	0.693386	6053.123047
7871.100403	1.396857	0.693386	7285.150391
7871.101394	0.925027	0.693386	8201.851562
7871.102395	0.104637	0.693386	8306.593750
7871.103286	0.094735	0.693386	8391.002930
7871.104147	0.094827	0.693386	8472.648437
7871.105244	0.094860	0.693386	8576.708984
7871.106172	0.094790	0.693386	8664.673828
7871.107048	0.094797	0.693386	8747.716797
7871.108023	0.094863	0.693386	8840.208984
7871.109012	0.094801	0.693386	8933.966797
7871.109890	0.094856	0.693386	9017.250000
7871.110749	0.094849	0.693386	9098.724609
7872.106434	1.034374	0.749323	442.711975
7872.107309	1.522471	0.749323	1774.873779
7872.108171	1.520050	0.749323	3085.156982
7872.109176	1.478236	0.749323	4570.784180
7872.110103	1.438348	0.749323	5904.133301
7872.110992	1.400749	0.749323	7149.399414
7872.111878	1.142629	0.749323	8161.769043
7872.112854	0.150692	0.749323	8308.844727
7872.113778	0.094713	0.749323	8396.359375
7872.114641	0.094878	0.749323	8478.239258
7872.115658	0.094808	0.749323	8574.659180
7872.116539	0.094845	0.749323	8658.217773
7872.117450	0.094805	0.749323	8744.584961
7872.118326	0.094926	0.749323	8827.739258
7872.119313	0.094867	0.749323	8921.373047
7872.120228	0.094867	0.749323	9008.176758
7872.121110	0.094801	0.749323	9091.791016
7873.093083	1.078590	0.775290	487.522705
7873.094016	1.527323	0.775290	1912.515015
7873.094898	1.517219	0.775290	3250.702393
7873.095816	1.477050	0.775290	4606.633789
7873.096779	1.435884	0.775290	5989.389648
7873.097712	1.397062	0.775290	7292.848633
7873.098582	1.090975	0.775290	8241.997070
7873.099558	0.134070	0.775290	8372.849609
7873.100506	0.094742	0.775290	8462.665039
7873.101399	0.094874	0.775290	8547.387695
7873.102265	0.094841	0.775290	8629.520508
7873.103227	0.094863	0.775290	8720.779297
7873.104167	0.094827	0.775290	8809.916016
7873.105052	0.094830	0.775290	8893.840820
7873.105956	0.094812	0.775290	8979.550781
7873.106924	0.094801	0.775290	9071.318359
7873.107839	0.094812	0.775290	9158.071289
7874.150347	1.040757	0.658412	448.566193
7874.151228	1.523727	0.658412	1790.969360
7874.152097	1.520354	0.658412	3112.156982
7874.153070	1.479283	0.658412	4551.500000
7874.154011	1.437931	0.658412	5904.592773
7874.154920	1.400233	0.658412	7177.404785
7874.155782	1.146171	0.658412	8165.403809
7874.156755	0.153783	0.658412	8315.034180
7874.157707	0.094786	0.658412	8405.270508
7874.158579	0.094845	0.658412	8487.975586
7874.159488	0.094812	0.658412	8574.160156
7874.160441	0.094904	0.658412	8664.603516
7874.161359	0.094808	0.658412	8751.637695
7874.162230	0.094882	0.658412	8834.279297
7874.163166	0.094779	0.658412	8922.992187
7874.164110	0.094794	0.658412	9012.477539
7874.165035	0.094907	0.658412	9100.266602
7875.117524	1.049114	0.841093	462.659210
7875.118398	1.522991	0.841093	1793.753052
7875.119304	1.519080	0.841093	3170.039062
7875.120255	1.478152	0.841093	4575.761719
7875.121199	1.436979	0.841093	5932.269531
7875.122076	1.400292	0.841093	7160.325195
7875.122993	1.108740	0.841093	8177.040039
7875.123951	0.141603	0.841093	8312.695312
7875.124864	0.094783	0.841093	8399.232422
7875.125740	0.094731	0.841093	8482.216797
7875.126709	0.094794	0.841093	8574.072266
7875.127639	0.094772	0.841093	8662.209961
7875.128550	0.094845	0.841093	8748.613281
7875.129409	0.094812	0.841093	8830.056641
7875.130369	0.094856	0.841093	8921.118164
7875.131316	0.094863	0.841093	9010.954102
7875.132188	0.094860	0.841093	9093.671875
7876.165577	1.039823	0.648172	446.084045
7876.166543	1.523115	0.648172	1917.413330
7876.167601	1.509913	0.648172	3514.901611
7876.168595	1.465997	0.648172	4972.103027
7876.169482	1.428014	0.648172	6238.751465
7876.170504	1.386753	0.648172	7656.012695
7876.171553	0.545966	0.648172	8228.730469
7876.172426	0.096628	0.648172	8313.086914
7876.173300	0.094867	0.648172	8396.000977
7876.174412	0.094838	0.648172	8501.459961
7876.175376	0.094757	0.648172	8592.805664
7876.176242	0.094860	0.648172	8674.954102
7876.177251	0.094885	0.648172	8770.693359
7876.178288	0.094845	0.648172	8869.047852
7876.179177	0.094779	0.648172	8953.306641
7876.180087	0.094918	0.648172	9039.682617
7876.181172	0.094841	0.648172	9142.584961
7877.172729	1.074313	0.746963	512.447144
7877.173664	1.528213	0.746963	1941.326172
7877.174542	1.516241	0.746963	3272.586182
7877.175462	1.476797	0.746963	4631.239258
7877.176421	1.435232	0.746963	6007.626953
7877.177352	1.396077	0.746963	7307.374512
7877.178227	1.074210	0.746963	8247.308594
7877.179148	0.132817	0.746963	8369.633789
7877.180100	0.094739	0.746963	8459.825195
7877.181026	0.094819	0.746963	8547.627930
7877.181899	0.094834	0.746963	8630.417969
7877.182860	0.094772	0.746963	8721.493164
7877.183796	0.094801	0.746963	8810.226562
7877.184692	0.094904	0.746963	8895.259766
7877.185550	0.094779	0.746963	8976.580078
7877.186523	0.094852	0.746963	9068.871094
7877.187474	0.094845	0.746963	9159.068359
7878.175233	1.108209	0.827276	547.455383
7878.176162	1.527744	0.827276	1966.729492
7878.177068	1.514348	0.827276	3338.729004
7878.177957	1.475760	0.827276	4650.680176
7878.178872	1.436177	0.827276	5964.782227
7878.179830	1.396677	0.827276	7302.798828
7878.180727	1.071075	0.827276	8263.553711
7878.181648	0.139611	0.827276	8392.134766
7878.182567	0.094717	0.827276	8479.179687
7878.183513	0.094786	0.827276	8568.847656
7878.184397	0.094801	0.827276	8652.651367
7878.185323	0.094779	0.827276	8740.416992
7878.186283	0.094768	0.827276	8831.394531
7878.187198	0.094812	0.827276	8918.147461
7878.188065	0.094819	0.827276	9000.355469
7878.189010	0.094819	0.827276	9089.959961
7878.189931	0.094841	0.827276	9177.308594
7879.213524	1.053362	0.687545	469.799347
7879.214393	1.523599	0.687545	1793.806519
7879.215382	1.516831	0.687545	3293.952393
7879.216294	1.476204	0.687545	4640.250000
7879.217178	1.437682	0.687545	5911.160645
7879.218077	1.400233	0.687545	7169.970215
7879.219019	1.077576	0.687545	8185.046387
7879.219984	0.130638	0.687545	8311.112305
7879.220872	0.094731	0.687545	8395.233398
7879.221781	0.094882	0.687545	8481.480469
7879.222740	0.094812	0.687545	8572.405273
7879.223660	0.094779	0.687545	8659.601562
7879.224522	0.094849	0.687545	8741.361328
7879.225463	0.094750	0.687545	8830.520508
7879.226385	0.094753	0.687545	8917.882812
7879.227289	0.094746	0.687545	9003.533203
7879.228167	0.094812	0.687545	9086.778320
7880.199629	1.056317	0.903366	463.723206
7880.200517	1.524144	0.903366	1817.163330
7880.201468	1.516249	0.903366	3259.115723
7880.202400	1.475815	0.903366	4634.575684
7880.203324	1.436096	0.903366	5961.528320
7880.204193	1.399625	0.903366	7177.802734
7880.205154	1.079894	0.903366	8215.580078
7880.206117	0.133396	0.903366	8344.040039
7880.206987	0.094684	0.903366	8426.415039
7880.207874	0.094761	0.903366	8510.467773
7880.208814	0.094764	0.903366	8599.545898
7880.209760	0.094783	0.903366	8689.209961
7880.210649	0.094750	0.903366	8773.442383
7880.211557	0.094808	0.903366	8859.528320
7880.212510	0.094915	0.903366	8949.981445
7880.213435	0.094874	0.903366	9037.740234
7880.214300	0.094753	0.903366	9119.702148
7881.231807	1.035820	0.709435	444.366943
7881.232683	1.523071	0.709435	1778.577393
7881.233669	1.516791	0.709435	3274.133057
7881.234673	1.472743	0.709435	4752.767090
7881.235562	1.434280	0.709435	6027.841797
7881.236431	1.397098	0.709435	7241.920410
7881.237530	0.854740	0.709435	8181.279785
7881.238451	0.105762	0.709435	8278.686523
7881.239326	0.094757	0.709435	8361.598633
7881.240299	0.094940	0.709435	8453.975586
7881.241303	0.094816	0.709435	8549.170898
7881.242180	0.094768	0.709435	8632.282227
7881.243035	0.094790	0.709435	8713.328125
7881.244074	0.094860	0.709435	8811.887695
7881.245004	0.094801	0.709435	8900.052734
7881.245880	0.094966	0.709435	8983.243164
7881.246824	0.094948	0.709435	9072.874023
7882.233785	1.028957	0.818570	435.249023
7882.234738	1.526642	0.818570	1890.138672
7882.235674	1.515428	0.818570	3308.579590
7882.236563	1.476453	0.818570	4621.145996
7882.237452	1.437425	0.818570	5899.017090
7882.238434	1.397051	0.818570	7270.920898
7882.239381	1.032887	0.818570	8249.064453
7882.240265	0.130250	0.818570	8364.206055
7882.241180	0.094768	0.818570	8450.918945
7882.242132	0.094823	0.818570	8541.190430
7882.243049	0.094757	0.818570	8628.083008
7882.243905	0.094808	0.818570	8709.239258
7882.244849	0.094812	0.818570	8798.742187
7882.245806	0.094790	0.818570	8889.456055
7882.246702	0.094797	0.818570	8974.394531
7882.247856	0.094860	0.818570	9083.862305
7882.248782	0.094849	0.818570	9171.692383
7883.257292	1.049147	0.615386	456.378845
7883.258167	1.523430	0.615386	1789.380127
7883.259112	1.517604	0.615386	3223.515625
7883.260058	1.476636	0.615386	4620.413086
7883.260972	1.437074	0.615386	5933.898437
7883.261854	1.399578	0.615386	7168.326172
7883.262823	1.074888	0.615386	8209.892578
7883.263765	0.130858	0.615386	8333.161133
7883.264650	0.094702	0.615386	8416.972656
7883.265552	0.094823	0.615386	8502.502930
7883.266480	0.094728	0.615386	8590.410156
7883.267430	0.094772	0.615386	8680.443359
7883.268310	0.094819	0.615386	8763.884766
7883.269287	0.094889	0.615386	8856.590820
7883.270342	0.094849	0.615386	8956.656250
7883.271303	0.094834	0.615386	9047.791992
7883.272163	0.094874	0.615386	9129.383789
7884.270011	1.042808	0.802074	442.150452
7884.271076	1.530425	0.802074	2072.052979
7884.271970	1.512697	0.802074	3424.403809
7884.272841	1.474167	0.802074	4708.403809
7884.273824	1.432277	0.802074	6116.331543
7884.274763	1.392576	0.802074	7423.959961
7884.275694	0.920552	0.802074	8280.994141
7884.276565	0.114056	0.802074	8380.336914
7884.277607	0.094768	0.802074	8479.084961
7884.278500	0.094764	0.802074	8563.709961
7884.279419	0.094757	0.802074	8650.791992
7884.280279	0.094779	0.802074	8732.301758
7884.281277	0.094812	0.802074	8826.923828
7884.282198	0.094772	0.802074	8914.208984
7884.283063	0.094794	0.802074	8996.205078
7884.284111	0.094739	0.802074	9095.491211
7884.284978	0.094768	0.802074	9177.655273
7885.280713	1.043383	0.702784	452.828003
7885.281585	1.522906	0.702784	1780.802368
7885.282560	1.516542	0.702784	3259.430664
7885.283505	1.475698	0.702784	4653.965332
7885.284397	1.437107	0.702784	5935.864746
7885.285316	1.399164	0.702784	7221.696289
7885.286275	1.055918	0.702784	8234.321289
7885.287200	0.129404	0.702784	8354.020508
7885.288065	0.094783	0.702784	8436.007812
7885.289000	0.094772	0.702784	8524.619141
7885.289925	0.094867	0.702784	8612.371094
7885.290850	0.094764	0.702784	8700.028320
7885.291728	0.094823	0.702784	8783.283203
7885.292703	0.094768	0.702784	8875.681641
7885.293645	0.094794	0.702784	8964.977539
7885.294535	0.094801	0.702784	9049.350586
7885.295417	0.094874	0.702784	9133.029297
7886.298554	1.025105	0.768160	430.544098
7886.299459	1.521595	0.768160	1807.588013
7886.300549	1.511722	0.768160	3455.365234
7886.301448	1.471776	0.768160	4778.492187
7886.302314	1.434261	0.768160	6020.562500
7886.303371	1.390902	0.768160	7490.746094
7886.304358	0.770753	0.768160	8251.479492
7886.305267	0.101909	0.768160	8344.115234
7886.306133	0.094856	0.768160	8426.260742
7886.307187	0.094841	0.768160	8526.223633
7886.308077	0.094849	0.768160	8610.638672
7886.308941	0.094918	0.768160	8692.648437
7886.309802	0.094874	0.768160	8774.334961
7886.310851	0.094808	0.768160	8873.789062
7886.311744	0.094775	0.768160	8958.423828
7886.312617	0.094849	0.768160	9041.226562
7886.313586	0.094871	0.768160	9133.156250
7887.308265	1.087075	0.625614	513.099426
7887.309198	1.528608	0.625614	1939.291016
7887.310121	1.515249	0.625614	3337.865723
7887.310992	1.476339	0.625614	4623.756836
7887.311974	1.435287	0.625614	6033.208496
7887.312922	1.396168	0.625614	7356.775879
7887.313816	1.023977	0.625614	8272.210937
7887.314704	0.130170	0.625614	8387.801758
7887.315648	0.094761	0.625614	8477.255859
7887.316599	0.094790	0.625614	8567.401367
7887.317492	0.094834	0.625614	8652.087891
7887.318400	0.094812	0.625614	8738.176758
7887.319360	0.094757	0.625614	8829.143555
7887.320277	0.094797	0.625614	8916.072266
7887.321138	0.094823	0.625614	8997.714844
7887.322098	0.094812	0.625614	9088.734375
7887.323020	0.094794	0.625614	9176.133789
7888.324099	1.116888	0.757473	541.690857
7888.324992	1.527345	0.757473	1905.609863
7888.325922	1.515743	0.757473	3315.251221
7888.326793	1.476566	0.757473	4601.340332
7888.327779	1.435126	0.757473	6016.374023
7888.328688	1.396659	0.757473	7285.937012
7888.329580	1.086160	0.757473	8254.791016
7888.330497	0.143009	0.757473	8385.930664
7888.331454	0.094794	0.757473	8476.648437
7888.332371	0.094834	0.757473	8563.611328
7888.333249	0.094911	0.757473	8646.943359
7888.334218	0.094823	0.757473	8738.827148
7888.335155	0.094812	0.757473	8827.666016
7888.336079	0.094816	0.757473	8915.275391
7888.336941	0.094812	0.757473	8997.002930
7888.337913	0.094900	0.757473	9089.246094
7888.338841	0.094830	0.757473	9177.249023
7889.344958	1.029833	0.623438	436.649109
7889.345871	1.522042	0.623438	1826.273682
7889.346948	1.512316	0.623438	3455.037598
7889.347833	1.472849	0.623438	4758.508789
7889.348696	1.435155	0.623438	5997.047852
7889.349727	1.392261	0.623438	7432.468750
7889.350706	0.835474	0.623438	8250.397461
7889.351576	0.106293	0.623438	8342.872070
7889.352443	0.094750	0.623438	8425.020508
7889.353541	0.094852	0.623438	8529.167969
7889.354435	0.094819	0.623438	8613.936523
7889.355311	0.094779	0.623438	8696.962891
7889.356307	0.094882	0.623438	8791.464844
7889.357309	0.094849	0.623438	8886.502930
7889.358204	0.094805	0.623438	8971.353516
7889.359064	0.094783	0.623438	9052.866211
7889.360152	0.094794	0.623438	9156.001953
7890.344383	1.031704	0.852553	442.601044
7890.345251	1.521855	0.852553	1763.571655
7890.346142	1.518710	0.852553	3116.741943
7890.347180	1.475343	0.852553	4648.147949
7890.348078	1.436352	0.852553	5937.992187
7890.348957	1.400116	0.852553	7168.694336
7890.349976	1.009028	0.852553	8196.894531
7890.350890	0.124204	0.852553	8310.416992
7890.351812	0.094808	0.852553	8397.830078
7890.352669	0.094849	0.852553	8479.115234
7890.353707	0.094805	0.852553	8577.522461
7890.354577	0.094794	0.852553	8659.993164
7890.355448	0.094878	0.852553	8742.631836
7890.356403	0.094808	0.852553	8833.173828
7890.357360	0.094878	0.852553	8923.971680
7890.358271	0.094823	0.852553	9010.355469
7890.359149	0.094838	0.852553	9093.623047
7891.375644	1.117855	0.621154	566.752563
7891.376690	1.532179	0.621154	2169.411621
7891.377583	1.510045	0.621154	3517.881836
7891.378449	1.469802	0.621154	4790.730469
7891.379571	1.423520	0.621154	6387.920410
7891.380529	1.384512	0.621154	7714.282715
7891.381406	0.689019	0.621154	8318.551758
7891.382443	0.097449	0.621154	8419.606445
7891.383473	0.094871	0.621154	8517.323242
7891.384364	0.094823	0.621154	8601.810547
7891.385296	0.094863	0.621154	8690.222656
7891.386340	0.094841	0.621154	8789.237305
7891.387277	0.094794	0.621154	8878.058594
7891.388143	0.094797	0.621154	8960.153320
7891.389184	0.094969	0.621154	9059.016602
7891.390190	0.094783	0.621154	9154.368164
7891.391077	0.094849	0.621154	9238.499023
7892.365241	1.034008	0.894577	437.385254
7892.366302	1.528667	0.894577	2059.300781
7892.367245	1.510232	0.894577	3483.449707
7892.368129	1.471622	0.894577	4784.363770
7892.369099	1.430662	0.894577	6172.105469
7892.370137	1.387075	0.894577	7611.889648
7892.371035	0.773961	0.894577	8306.907227
7892.371895	0.104194	0.894577	8396.514648
7892.372952	0.094746	0.894577	8496.661133
7892.373879	0.094709	0.894577	8584.457031
7892.374751	0.094812	0.894577	8667.132812
7892.375684	0.094856	0.894577	8755.633789
7892.376747	0.094805	0.894577	8856.411133
7892.377625	0.094764	0.894577	8939.614258
7892.378490	0.094849	0.894577	9021.658203
7892.379517	0.094860	0.894577	9119.079102
7892.380467	0.094753	0.894577	9209.094727
7893.406273	1.137777	0.599969	637.155151
7893.407217	1.532168	0.599969	2083.521484
7893.408147	1.510836	0.599969	3488.599121
7893.409015	1.471685	0.599969	4766.021484
7893.410051	1.428388	0.599969	6245.831055
7893.410931	1.391569	0.599969	7470.411621
7893.411807	0.941803	0.599969	8295.430664
7893.412777	0.116422	0.599969	8408.360352
7893.413729	0.094783	0.599969	8498.593750
7893.414637	0.094783	0.599969	8584.656250
7893.415513	0.094834	0.599969	8667.730469
7893.416528	0.094845	0.599969	8763.998047
7893.417419	0.094841	0.599969	8848.501953
7893.418339	0.094819	0.599969	8935.735352
7893.419210	0.094878	0.599969	9018.374023
7893.420202	0.094834	0.599969	9112.449219
7893.421130	0.094746	0.599969	9200.374023
7894.396453	1.079670	0.798803	575.464355
7894.397353	1.529231	0.798803	1951.772217
7894.398259	1.514143	0.798803	3323.585937
7894.399143	1.475508	0.798803	4627.934570
7894.400096	1.434031	0.798803	5994.565918
7894.401043	1.395095	0.798803	7315.720703
7894.401945	1.029617	0.798803	8244.434570
7894.402921	0.127229	0.798803	8368.610352
7894.403838	0.094790	0.798803	8455.533203
7894.404753	0.094834	0.798803	8542.306641
7894.405626	0.094896	0.798803	8625.151367
7894.406557	0.094805	0.798803	8713.414062
7894.407506	0.094830	0.798803	8803.408203
7894.408394	0.094845	0.798803	8887.630859
7894.409299	0.094830	0.798803	8973.452148
7894.410291	0.094750	0.798803	9067.444336
7894.411200	0.094739	0.798803	9153.561523
7895.420360	1.041024	0.663041	452.845520
7895.421224	1.522328	0.663041	1768.136719
7895.422326	1.511701	0.663041	3434.030762
7895.423319	1.468268	0.663041	4892.020508
7895.424211	1.430057	0.663041	6167.631836
7895.425078	1.392715	0.663041	7375.115723
7895.426168	0.740720	0.663041	8182.500977
7895.427073	0.100576	0.663041	8273.522461
7895.427947	0.094772	0.663041	8356.352539
7895.428938	0.094988	0.663041	8450.485352
7895.429940	0.094885	0.663041	8545.560547
7895.430820	0.094940	0.663041	8629.107422
7895.431675	0.094900	0.663041	8710.247070
7895.432756	0.095010	0.663041	8812.952148
7895.433661	0.094900	0.663041	8898.836914
7895.434535	0.094904	0.663041	8981.782227
7895.435493	0.094955	0.663041	9072.749023
7896.437769	1.117991	0.655947	551.169373
7896.438707	1.529231	0.655947	1985.587891
7896.439576	1.515842	0.655947	3302.854736
7896.440496	1.475006	0.655947	4659.860352
7896.441461	1.434060	0.655947	6043.728516
7896.442396	1.395326	0.655947	7348.358398
7896.443275	1.040918	0.655947	8263.325195
7896.444253	0.120531	0.655947	8381.204102
7896.445197	0.094827	0.655947	8470.720703
7896.446093	0.094937	0.655947	8555.784180
7896.446985	0.094874	0.655947	8640.412109
7896.447929	0.094841	0.655947	8729.942383
7896.448885	0.094911	0.655947	8820.676758
7896.449764	0.094922	0.655947	8904.113281
7896.450670	0.094874	0.655947	8990.069336
7896.451624	0.094951	0.655947	9080.652344
7896.452513	0.094871	0.655947	9164.992187
7897.425346	1.030855	0.754097	439.144043
7897.426213	1.521742	0.754097	1758.494263
7897.427164	1.518094	0.754097	3202.202148
7897.428123	1.476951	0.754097	4618.597656
7897.429022	1.437601	0.754097	5911.000977
7897.429912	1.400299	0.754097	7157.267090
7897.430865	1.085508	0.754097	8191.755859
7897.431816	0.137582	0.754097	8322.595703
7897.432704	0.094827	0.754097	8406.801758
7897.433632	0.094940	0.754097	8494.906250
7897.434595	0.094871	0.754097	8586.266602
7897.435504	0.094955	0.754097	8672.580078
7897.436382	0.094999	0.754097	8755.989258
7897.437314	0.094893	0.754097	8844.428711
7897.438251	0.094937	0.754097	8933.383789
7897.439176	0.094980	0.754097	9021.240234
7897.440040	0.094915	0.754097	9103.246094
7898.485764	1.096494	0.562426	542.764587
7898.486673	1.529498	0.562426	1933.078613
7898.487547	1.516176	0.562426	3258.216064
7898.488625	1.469934	0.562426	4842.805176
7898.489624	1.426959	0.562426	6268.337402
7898.490527	1.389683	0.562426	7523.220703
7898.491520	0.726475	0.562426	8244.610352
7898.492567	0.097441	0.562426	8346.631836
7898.493473	0.094900	0.562426	8432.611328
7898.494333	0.094889	0.562426	8514.215820
7898.495429	0.094933	0.562426	8618.262695
7898.496383	0.094860	0.562426	8708.758789
7898.497259	0.094867	0.562426	8791.862305
7898.498390	0.094940	0.562426	8899.239258
7898.499412	0.094830	0.562426	8996.156250
7898.500293	0.094944	0.562426	9079.801758
7898.501210	0.094878	0.562426	9166.804687
7899.446766	1.050872	0.763004	500.214874
7899.447707	1.527268	0.763004	1937.374023
7899.448631	1.514557	0.763004	3336.824707
7899.449505	1.475999	0.763004	4626.847656
7899.450415	1.435422	0.763004	5933.082031
7899.451377	1.395905	0.763004	7275.942383
7899.452309	1.030855	0.763004	8236.699219
7899.453180	0.130562	0.763004	8350.417969
7899.454146	0.094907	0.763004	8442.098633
7899.455085	0.094845	0.763004	8531.158203
7899.455990	0.094922	0.763004	8617.062500
7899.456849	0.094882	0.763004	8698.565430
7899.457817	0.094911	0.763004	8790.439453
7899.458741	0.094889	0.763004	8878.117187
7899.459602	0.094852	0.763004	8959.785156
7899.460538	0.094867	0.763004	9048.581055
7899.461490	0.094915	0.763004	9138.939453
7900.500467	1.108865	0.581194	533.363953
7900.501430	1.529740	0.581194	2006.503662
7900.502368	1.512777	0.581194	3425.488525
7900.503238	1.473834	0.581194	4707.724121
7900.504217	1.432639	0.581194	6110.277832
7900.505175	1.393140	0.581194	7444.905762
7900.506072	0.950548	0.581194	8297.547852
7900.506988	0.118759	0.581194	8406.331055
7900.507935	0.094753	0.581194	8496.062500
7900.508860	0.094823	0.581194	8583.773437
7900.509730	0.094940	0.581194	8666.371094
7900.510646	0.094871	0.581194	8753.272461
7900.511600	0.094860	0.581194	8843.768555
7900.512518	0.094863	0.581194	8930.853516
7900.513399	0.094900	0.581194	9014.459961
7900.514366	0.094801	0.581194	9106.132812
7900.515288	0.094812	0.581194	9193.549805
7901.503464	1.096549	0.602286	514.281494
7901.504386	1.528337	0.602286	1923.408691
7901.505266	1.517413	0.602286	3258.732422
7901.506179	1.477324	0.602286	4607.529297
7901.507147	1.435693	0.602286	5997.280273
7901.508071	1.397373	0.602286	7288.453125
7901.508938	1.107887	0.602286	8248.991211
7901.509912	0.137333	0.602286	8382.752930
7901.510858	0.094739	0.602286	8472.375977
7901.511754	0.094830	0.602286	8557.343750
7901.512622	0.094860	0.602286	8639.681641
7901.513580	0.094845	0.602286	8730.542969
7901.514514	0.094904	0.602286	8819.182617
7901.515405	0.094926	0.602286	8903.761719
7901.516329	0.094882	0.602286	8991.432617
7901.517271	0.094918	0.602286	9080.845703
7901.518197	0.094896	0.602286	9168.719727
7902.506431	1.039633	0.756679	446.002380
7902.507310	1.522998	0.756679	1784.717773
7902.508185	1.520171	0.756679	3114.867187
7902.509156	1.479130	0.756679	4551.102051
7902.510098	1.437740	0.756679	5905.453613
7902.511019	1.399552	0.756679	7194.440918
7902.511886	1.151298	0.756679	8192.616211
7902.512899	0.143994	0.756679	8338.482422
7902.513826	0.094772	0.756679	8426.335937
7902.514688	0.094867	0.756679	8508.111328
7902.515552	0.094882	0.756679	8590.088867
7902.516503	0.094849	0.756679	8680.290039
7902.517455	0.094856	0.756679	8770.592773
7902.518345	0.094885	0.756679	8855.041016
7902.519247	0.094867	0.756679	8940.611328
7902.520204	0.094805	0.756679	9031.339844
7902.521128	0.094830	0.756679	9118.962891
7903.541686	1.033803	0.572090	433.163239
7903.542659	1.528422	0.572090	1920.317505
7903.543590	1.515286	0.572090	3331.048340
7903.544483	1.476013	0.572090	4649.127930
7903.545380	1.436832	0.572090	5937.966797
7903.546346	1.396747	0.572090	7287.224121
7903.547302	1.006985	0.572090	8249.901367
7903.548190	0.124427	0.572090	8360.392578
7903.549113	0.094805	0.572090	8447.897461
7903.550073	0.094904	0.572090	8539.004883
7903.550993	0.094783	0.572090	8626.205078
7903.551850	0.094885	0.572090	8707.521484
7903.552773	0.094933	0.572090	8795.144531
7903.553726	0.094896	0.572090	8885.581055
7903.554653	0.094926	0.572090	8973.577148
7903.555514	0.094812	0.572090	9055.209961
7903.556473	0.094863	0.572090	9146.183594
7904.536033	1.069116	0.738910	481.102264
7904.536909	1.524415	0.738910	1816.490112
7904.537789	1.519314	0.738910	3153.486328
7904.538758	1.478818	0.738910	4586.461426
7904.539680	1.437418	0.738910	5911.760742
7904.540584	1.399497	0.738910	7176.906250
7904.541477	1.157245	0.738910	8210.326172
7904.542397	0.156848	0.738910	8354.626953
7904.543358	0.094739	0.738910	8445.670898
7904.544277	0.094841	0.738910	8532.830078
7904.545139	0.094871	0.738910	8614.608398
7904.546112	0.094904	0.738910	8706.949219
7904.547064	0.094816	0.738910	8797.213867
7904.547953	0.094827	0.738910	8881.514648
7904.548836	0.094841	0.738910	8965.259766
7904.549785	0.094827	0.738910	9055.250000
7904.550728	0.094860	0.738910	9144.702148
7905.547762	1.065051	0.660491	501.639099
7905.548642	1.526180	0.660491	1844.677734
7905.549510	1.518582	0.660491	3162.806641
7905.550464	1.477844	0.660491	4572.669922
7905.551414	1.436895	0.660491	5937.719727
7905.552316	1.399105	0.660491	7199.712891
7905.553196	1.117753	0.660491	8183.335449
7905.554168	0.136212	0.660491	8315.733398
7905.555113	0.094746	0.660491	8405.268555
7905.555999	0.094878	0.660491	8489.330078
7905.556914	0.094882	0.660491	8576.146484
7905.557868	0.094918	0.660491	8666.698242
7905.558753	0.094889	0.660491	8750.674805
7905.559638	0.094933	0.660491	8834.690430
7905.560578	0.094896	0.660491	8923.892578
7905.561522	0.094926	0.660491	9013.501953
7905.562414	0.094911	0.660491	9098.162109
7906.585169	1.159135	0.518537	649.115295
7906.586067	1.531227	0.518537	2024.156982
7906.586940	1.514758	0.518537	3346.541016
7906.587805	1.474600	0.518537	4622.069824
7906.588874	1.430933	0.518537	6151.736816
7906.589752	1.393832	0.518537	7375.520996
7906.590640	1.013888	0.518537	8275.853516
7906.591622	0.121377	0.518537	8395.045898
7906.592554	0.094849	0.518537	8483.445312
7906.593475	0.094911	0.518537	8570.858398
7906.594341	0.094966	0.518537	8653.098633
7906.595386	0.094852	0.518537	8752.219727
7906.596267	0.094951	0.518537	8835.872070
7906.597139	0.094856	0.518537	8918.586914
7906.598111	0.094937	0.518537	9010.865234
7906.599082	0.094926	0.518537	9103.038086
7906.600009	0.094867	0.518537	9190.979492
7907.555317	1.089602	0.762412	509.933777
7907.556200	1.525880	0.762412	1857.285889
7907.557073	1.518538	0.762412	3182.969238
7907.558042	1.477269	0.762412	4614.443359
7907.558997	1.435492	0.762412	5985.337891
7907.559925	1.396930	0.762412	7281.688965
7907.560795	1.104727	0.762412	8242.800781
7907.561832	0.121567	0.762412	8368.866211
7907.562716	0.094830	0.762412	8452.696289
7907.563590	0.094911	0.762412	8535.648437
7907.564510	0.094904	0.762412	8622.959961
7907.565529	0.094915	0.762412	8719.677734
7907.566416	0.094977	0.762412	8803.921875
7907.567304	0.094977	0.762412	8888.261719
7907.568297	0.094955	0.762412	8982.551758
7907.569226	0.094933	0.762412	9070.744141
7907.570150	0.094926	0.762412	9158.455078
7908.614072	1.026149	0.505010	433.034729
7908.615027	1.522723	0.505010	1887.235596
7908.615938	1.517043	0.505010	3269.262207
7908.616861	1.477093	0.505010	4632.619629
7908.617730	1.438949	0.505010	5883.066406
7908.618711	1.397750	0.505010	7254.259277
7908.619675	1.002268	0.505010	8220.445312
7908.620589	0.121736	0.505010	8331.711914
7908.621468	0.094698	0.505010	8414.952148
7908.622426	0.094878	0.505010	8505.844727
7908.623354	0.094867	0.505010	8593.880859
7908.624233	0.094874	0.505010	8677.275391
7908.625240	0.094896	0.505010	8772.835937
7908.626133	0.094834	0.505010	8857.522461
7908.627048	0.094893	0.505010	8944.349609
7908.627908	0.094871	0.505010	9025.938477
7908.628909	0.094849	0.505010	9120.881836
7909.600222	1.077455	0.602608	493.474304
7909.601111	1.526155	0.602608	1850.226074
7909.602028	1.516952	0.602608	3241.270996
7909.602988	1.475537	0.602608	4657.786621
7909.603919	1.435602	0.602608	5994.332031
7909.604789	1.398842	0.602608	7211.324219
7909.605776	1.042606	0.602608	8240.376953
7909.606723	0.126302	0.602608	8359.985352
7909.607614	0.094801	0.602608	8444.453125
7909.608486	0.094852	0.602608	8527.164062
7909.609435	0.094823	0.602608	8617.151367
7909.610374	0.094874	0.602608	8706.238281
7909.611267	0.094874	0.602608	8790.960937
7909.612182	0.094889	0.602608	8877.784180
7909.613137	0.094871	0.602608	8968.385742
7909.614055	0.094838	0.602608	9055.446289
7909.614926	0.094878	0.602608	9138.084961
7910.620131	1.070398	0.654126	497.735046
7910.621063	1.528110	0.654126	1921.933838
7910.621945	1.516897	0.654126	3259.836914
7910.622856	1.477269	0.654126	4605.629395
7910.623828	1.435811	0.654126	6001.237305
7910.624755	1.397124	0.654126	7296.371094
7910.625624	1.097084	0.654126	8249.736328
7910.626581	0.132539	0.654126	8376.576172
7910.627493	0.094838	0.654126	8463.068359
7910.628416	0.094969	0.654126	8550.725586
7910.629289	0.094896	0.654126	8633.570312
7910.630257	0.094958	0.654126	8725.490234
7910.631181	0.094882	0.654126	8813.161133
7910.632054	0.094867	0.654126	8895.979492
7910.633013	0.094819	0.654126	8986.911133
7910.633933	0.094834	0.654126	9074.158203
7910.634856	0.094904	0.654126	9161.753906
7911.648248	1.102709	0.539537	532.608276
7911.649144	1.528586	0.539537	1902.221680
7911.650120	1.514150	0.539537	3380.032471
7911.651181	1.467609	0.539537	4937.165039
7911.652105	1.427754	0.539537	6256.409668
7911.652972	1.390781	0.539537	7462.216797
7911.654053	0.676622	0.539537	8193.645508
7911.655041	0.097039	0.539537	8289.519531
7911.655941	0.094882	0.539537	8374.913086
7911.656942	0.094937	0.539537	8469.944336
7911.657992	0.094871	0.539537	8569.558594
7911.658876	0.094904	0.539537	8653.453125
7911.659731	0.094955	0.539537	8734.639648
7911.660834	0.094980	0.539537	8839.403320
7911.661794	0.094907	0.539537	8930.514648
7911.662651	0.094962	0.539537	9011.897461
7911.663754	0.095032	0.539537	9116.717773
7912.638404	1.031158	0.732678	446.491608
7912.639273	1.522401	0.732678	1769.458130
7912.640281	1.514667	0.732678	3296.242187
7912.641329	1.469773	0.732678	4836.564453
7912.642228	1.430903	0.732678	6122.946289
7912.643150	1.392510	0.732678	7406.840332
7912.644228	0.715298	0.732678	8177.931641
7912.645167	0.098859	0.732678	8270.759766
7912.646032	0.094772	0.732678	8352.737305
7912.647089	0.094991	0.732678	8453.143555
7912.648107	0.094980	0.732678	8549.833984
7912.648993	0.094834	0.732678	8633.856445
7912.649945	0.094940	0.732678	8724.239258
7912.650994	0.094911	0.732678	8823.800781
7912.651916	0.094889	0.732678	8911.288086
7912.652775	0.094900	0.732678	8992.806641
7912.653829	0.094969	0.732678	9092.904297
7913.669105	1.107250	0.543226	530.372681
7913.670082	1.530531	0.543226	2025.701538
7913.671008	1.513011	0.543226	3426.750000
7913.671881	1.473933	0.543226	4713.493652
7913.672859	1.432690	0.543226	6114.665039
7913.673812	1.393458	0.543226	7442.630859
7913.674711	0.952841	0.543226	8299.234375
7913.675636	0.118799	0.543226	8409.123047
7913.676533	0.094849	0.543226	8494.202148
7913.677471	0.094988	0.543226	8583.300781
7913.678359	0.094962	0.543226	8667.626953
7913.679276	0.094977	0.543226	8754.720703
7913.680225	0.094988	0.543226	8844.864258
7913.681150	0.094969	0.543226	8932.710937
7913.682015	0.095002	0.543226	9014.887695
7913.682984	0.095054	0.543226	9106.995117
7913.683913	0.094951	0.543226	9195.205078
7914.678767	1.072745	0.569761	510.626770
7914.679693	1.527766	0.569761	1925.338135
7914.680622	1.515377	0.569761	3333.123535
7914.681495	1.476562	0.569761	4622.162598
7914.682447	1.435752	0.569761	5988.998535
7914.683384	1.396047	0.569761	7297.094727
7914.684303	1.044276	0.569761	8256.784180
7914.685165	0.133920	0.569761	8372.222656
7914.686135	0.094816	0.569761	8464.194336
7914.687084	0.094926	0.569761	8554.278320
7914.687974	0.094922	0.569761	8638.758789
7914.688881	0.094958	0.569761	8724.885742
7914.689843	0.094922	0.569761	8816.200195
7914.690758	0.094904	0.569761	8903.037109
7914.691626	0.094955	0.569761	8985.458008
7914.692551	0.094977	0.569761	9073.311523
7914.693477	0.095006	0.569761	9161.287109
7915.675072	1.038413	0.621976	446.517609
7915.675938	1.521940	0.621976	1764.517334
7915.677049	1.511301	0.621976	3443.572998
7915.678027	1.468224	0.621976	4879.496094
7915.678913	1.430515	0.621976	6146.932617
7915.679912	1.389650	0.621976	7535.192383
7915.680976	0.628363	0.621976	8203.770508
7915.681868	0.097874	0.621976	8291.073242
7915.682756	0.094948	0.621976	8375.386719
7915.683844	0.095046	0.621976	8478.796875
7915.684792	0.094984	0.621976	8568.841797
7915.685650	0.094958	0.621976	8650.316406
7915.686674	0.095101	0.621976	8747.700195
7915.687712	0.094955	0.621976	8846.263672
7915.688589	0.094933	0.621976	8929.519531
7915.689512	0.095010	0.621976	9017.213867
7915.690578	0.094999	0.621976	9118.482422
7916.722646	1.064575	0.472022	473.735962
7916.723518	1.525159	0.472022	1803.674316
7916.724473	1.516692	0.472022	3252.115234
7916.725404	1.476174	0.472022	4626.433594
7916.726322	1.436766	0.472022	5945.385254
7916.727202	1.399772	0.472022	7177.184570
7916.728171	1.077327	0.472022	8221.114258
7916.729129	0.128767	0.472022	8344.472656
7916.730019	0.094955	0.472022	8428.982422
7916.730930	0.094929	0.472022	8515.462891
7916.731842	0.094922	0.472022	8602.031250
7916.732780	0.094860	0.472022	8691.009766
7916.733654	0.094951	0.472022	8773.997070
7916.734563	0.094991	0.472022	8860.344727
7916.735508	0.094922	0.472022	8950.045898
7916.736428	0.094980	0.472022	9037.427734
7916.737308	0.094969	0.472022	9121.000977
7917.692415	1.064312	0.661853	515.126770
7917.693342	1.528132	0.661853	1931.705322
7917.694206	1.516501	0.661853	3241.962402
7917.695088	1.477291	0.661853	4544.933105
7917.696055	1.435715	0.661853	5933.269531
7917.697014	1.396589	0.661853	7272.598633
7917.697909	1.075547	0.661853	8235.212891
7917.698827	0.136439	0.661853	8360.463867
7917.699780	0.094885	0.661853	8450.889648
7917.700701	0.094915	0.661853	8538.305664
7917.701563	0.094907	0.661853	8620.115234
7917.702521	0.094962	0.661853	8711.088867
7917.703440	0.094915	0.661853	8798.315430
7917.704357	0.094951	0.661853	8885.385742
7917.705218	0.095006	0.661853	8967.185547
7917.706181	0.094984	0.661853	9058.655273
7917.707130	0.095021	0.661853	9148.830078
7918.751741	1.091770	0.469907	527.324951
7918.752673	1.529172	0.469907	1952.513550
7918.753550	1.516604	0.469907	3282.575195
7918.754467	1.476171	0.469907	4636.223633
7918.755423	1.435323	0.469907	6008.392578
7918.756358	1.396117	0.469907	7313.761719
7918.757244	1.062715	0.469907	8255.327148
7918.758176	0.126504	0.469907	8373.228516
7918.759115	0.094852	0.469907	8462.294922
7918.760035	0.094977	0.469907	8549.673828
7918.760899	0.094955	0.469907	8631.714844
7918.761857	0.094988	0.469907	8722.712891
7918.762807	0.094980	0.469907	8812.944336
7918.763693	0.095032	0.469907	8897.142578
7918.764615	0.094969	0.469907	8984.704102
7918.765526	0.094915	0.469907	9071.170898
7918.766468	0.094915	0.469907	9160.580078
7919.722976	1.059144	0.633940	485.088074
7919.723862	1.525745	0.633940	1836.897949
7919.724785	1.517384	0.633940	3237.443359
7919.725744	1.476138	0.633940	4653.059570
7919.726664	1.435624	0.633940	5973.833496
7919.727557	1.398534	0.633940	7222.724609
7919.728492	1.046594	0.633940	8201.290039
7919.729452	0.127866	0.633940	8324.041992
7919.730330	0.094852	0.633940	8407.322266
7919.731258	0.094933	0.633940	8495.419922
7919.732185	0.094937	0.633940	8583.425781
7919.733133	0.094958	0.633940	8673.446289
7919.734025	0.094958	0.633940	8758.149414
7919.734939	0.094926	0.633940	8844.911133
7919.735867	0.094926	0.633940	8933.001953
7919.736791	0.094958	0.633940	9020.743164
7919.737655	0.094988	0.633940	9102.812500
7920.770513	1.048641	0.489775	462.450836
7920.771376	1.523606	0.489775	1777.322754
7920.772336	1.517399	0.489775	3234.025391
7920.773292	1.475991	0.489775	4645.073242
7920.774186	1.437151	0.489775	5929.886230
7920.775103	1.399720	0.489775	7213.429687
7920.776047	1.079337	0.489775	8232.324219
7920.776986	0.129258	0.489775	8353.697266
7920.777857	0.094896	0.489775	8436.351562
7920.778826	0.094940	0.489775	8528.348633
7920.779771	0.094940	0.489775	8618.067383
7920.780691	0.095006	0.489775	8705.472656
7920.781554	0.094977	0.489775	8787.437500
7920.782622	0.095057	0.489775	8888.958984
7920.783664	0.094995	0.489775	8987.944336
7920.784564	0.094973	0.489775	9073.419922
7920.785421	0.095035	0.489775	9154.865234
7921.760716	1.057855	0.537132	465.456299
7921.761594	1.524419	0.537132	1803.896118
7921.762598	1.515172	0.537132	3325.128906
7921.763654	1.469993	0.537132	4877.441406
7921.764553	1.430632	0.537132	6163.580078
7921.765439	1.392510	0.537132	7397.343750
7921.766541	0.709285	0.537132	8178.975586
7921.767496	0.098448	0.537132	8272.994141
7921.768358	0.094904	0.537132	8354.800781
7921.769382	0.095094	0.537132	8452.176758
7921.770408	0.094955	0.537132	8549.600586
7921.771288	0.095035	0.537132	8633.231445
7921.772197	0.095112	0.537132	8719.688477
7921.773272	0.095079	0.537132	8821.898437
7921.774200	0.095002	0.537132	8910.060547
7921.775066	0.094984	0.537132	8992.316406
7921.776072	0.095057	0.537132	9087.944336
7922.789819	1.026885	0.502605	434.372253
7922.790739	1.523156	0.502605	1835.675293
7922.791710	1.516128	0.502605	3307.835449
7922.792638	1.475032	0.502605	4676.665039
7922.793520	1.437158	0.502605	5944.238281
7922.794483	1.396926	0.502605	7289.478027
7922.795422	0.994816	0.502605	8223.610352
7922.796349	0.121681	0.502605	8336.408203
7922.797209	0.094845	0.502605	8417.974609
7922.798165	0.094937	0.502605	8508.734375
7922.799114	0.094933	0.502605	8598.825195
7922.800003	0.094973	0.502605	8683.255859
7922.800915	0.095013	0.502605	8769.908203
7922.801871	0.095032	0.502605	8860.758789
7922.802788	0.095010	0.502605	8947.882812
7922.803668	0.094951	0.502605	9031.439453
7922.804619	0.094958	0.502605	9121.745117
7923.793861	1.050458	0.504192	453.797729
7923.794752	1.524950	0.504192	1812.528076
7923.795756	1.514663	0.504192	3333.250000
7923.796818	1.469136	0.504192	4893.472168
7923.797713	1.430134	0.504192	6173.442383
7923.798606	1.392034	0.504192	7416.528320
7923.799713	0.683705	0.504192	8173.389648
7923.800669	0.097800	0.504192	8266.886719
7923.801539	0.094966	0.504192	8349.506836
7923.802589	0.095032	0.504192	8449.290039
7923.803619	0.094995	0.504192	8547.134766
7923.804506	0.094922	0.504192	8631.330078
7923.805366	0.094995	0.504192	8713.025391
7923.806412	0.095024	0.504192	8812.420898
7923.807355	0.094980	0.504192	8901.987305
7923.808227	0.094951	0.504192	8984.785156
7923.809153	0.095065	0.504192	9072.815430
7924.810251	1.110396	0.554353	546.314636
7924.811131	1.527792	0.554353	1890.771484
7924.812091	1.514872	0.554353	3345.048340
7924.813159	1.468440	0.554353	4913.342285
7924.814077	1.428680	0.554353	6224.871094
7924.814943	1.391682	0.554353	7430.067871
7924.816005	0.715920	0.554353	8190.375488
7924.816996	0.097687	0.554353	8287.182617
7924.817883	0.094940	0.554353	8371.394531
7924.818848	0.095032	0.554353	8463.100586
7924.819902	0.094966	0.554353	8563.194336
7924.820808	0.094973	0.554353	8649.240234
7924.821669	0.094966	0.554353	8731.005859
7924.822754	0.095057	0.554353	8834.143555
7924.823748	0.094955	0.554353	8928.528320
7924.824639	0.094995	0.554353	9013.168945
7924.825631	0.095039	0.554353	9107.447266
7925.821976	1.090953	0.492317	566.204773
7925.823045	1.532069	0.492317	2203.986572
7925.823955	1.507705	0.492317	3575.998047
7925.824830	1.468572	0.492317	4860.998535
7925.825883	1.423894	0.492317	6360.358887
7925.826893	1.382424	0.492317	7756.607422
7925.827797	0.594056	0.492317	8293.634766
7925.828760	0.098221	0.492317	8388.221680
7925.829802	0.094973	0.492317	8487.183594
7925.830712	0.094958	0.492317	8573.595703
7925.831573	0.094973	0.492317	8655.367187
7925.832660	0.095002	0.492317	8758.634766
7925.833649	0.094922	0.492317	8852.512695
7925.834539	0.094944	0.492317	8937.012695
7925.835544	0.095057	0.492317	9032.544922
7925.836583	0.094893	0.492317	9131.138672
7925.837470	0.094962	0.492317	9215.370117
7926.835745	1.123004	0.550401	574.978149
7926.836751	1.532183	0.550401	2116.353760
7926.837644	1.511147	0.550401	3465.808594
7926.838614	1.468964	0.550401	4890.703125
7926.839671	1.423575	0.550401	6395.422363
7926.840591	1.385354	0.550401	7669.948242
7926.841480	0.718315	0.550401	8308.530273
7926.842460	0.100807	0.550401	8407.321289
7926.843466	0.094958	0.550401	8502.849609
7926.844357	0.094900	0.550401	8587.405273
7926.845222	0.095032	0.550401	8669.607422
7926.846295	0.094977	0.550401	8771.517578
7926.847205	0.094977	0.550401	8857.946289
7926.848078	0.094977	0.550401	8940.861328
7926.849061	0.095021	0.550401	9034.266602
7926.850074	0.094966	0.550401	9130.466797
7926.850950	0.094995	0.550401	9213.682617
7927.848922	1.069578	0.482661	481.309906
7927.849793	1.525181	0.482661	1809.742310
7927.850716	1.517128	0.482661	3210.051270
7927.851689	1.475614	0.482661	4645.823730
7927.852622	1.435950	0.482661	5985.564941
7927.853503	1.398600	0.482661	7217.731445
7927.854479	1.043771	0.482661	8236.452148
7927.855412	0.122922	0.482661	8351.138672
7927.856325	0.094889	0.482661	8437.772461
7927.857184	0.094955	0.482661	8519.338867
7927.858148	0.095035	0.482661	8610.953125
7927.859087	0.094969	0.482661	8700.129883
7927.859959	0.095017	0.482661	8782.984375
7927.860869	0.095057	0.482661	8869.486328
7927.861814	0.094962	0.482661	8959.225586
7927.862745	0.094999	0.482661	9047.669922
7927.863622	0.095021	0.482661	9131.002930
7928.864190	1.032114	0.524757	438.648560
7928.865191	1.525181	0.524757	1965.354492
7928.866238	1.509404	0.524757	3545.700684
7928.867131	1.469293	0.524757	4857.779297
7928.867994	1.430878	0.524757	6092.626953
7928.869098	1.387031	0.524757	7623.909668
7928.870080	0.646051	0.524757	8258.332031
7928.870940	0.099371	0.524757	8343.791016
7928.872030	0.095061	0.524757	8447.407227
7928.873051	0.094991	0.524757	8544.393555
7928.873931	0.094980	0.524757	8627.976562
7928.874846	0.094995	0.524757	8714.897461
7928.875913	0.095043	0.524757	8816.307617
7928.876855	0.094984	0.524757	8905.782227
7928.877722	0.094980	0.524757	8988.129883
7928.878751	0.094977	0.524757	9085.861328
7928.879773	0.094856	0.524757	9182.803711
7929.873864	1.038637	0.470406	452.845551
7929.874737	1.523657	0.470406	1782.998291
7929.875682	1.518175	0.470406	3217.673828
7929.876670	1.475555	0.470406	4675.522461
7929.877569	1.435767	0.470406	5966.276367
7929.878458	1.399153	0.470406	7210.123047
7929.879443	1.018630	0.470406	8213.473633
7929.880361	0.121615	0.470406	8325.116211
7929.881278	0.094885	0.470406	8412.125977
7929.882145	0.095021	0.470406	8494.508789
7929.883184	0.094962	0.470406	8593.174805
7929.884066	0.094922	0.470406	8676.895508
7929.884940	0.094969	0.470406	8759.898437
7929.885942	0.094977	0.470406	8855.065430
7929.886867	0.094984	0.470406	8942.925781
7929.887787	0.094995	0.470406	9030.321289
7929.888644	0.094991	0.470406	9111.728516
7930.894888	1.105309	0.492877	589.129639
7930.895959	1.531923	0.492877	2229.818848
7930.896866	1.507412	0.492877	3597.041504
7930.897728	1.467975	0.492877	4862.435547
7930.898821	1.423066	0.492877	6417.847168
7930.899826	1.381355	0.492877	7806.108887
7930.900715	0.571659	0.492877	8314.313477
7930.901701	0.097365	0.492877	8410.314453
7930.902745	0.095094	0.492877	8509.592773
7930.903614	0.094988	0.492877	8592.136719
7930.904477	0.094988	0.492877	8674.111328
7930.905565	0.095083	0.492877	8777.561523
7930.906545	0.094984	0.492877	8870.645508
7930.907410	0.094984	0.492877	8952.806641
7930.908446	0.095145	0.492877	9051.376953
7930.909488	0.094984	0.492877	9150.350586
7930.910373	0.095054	0.492877	9234.472656
7931.894237	1.065718	0.478342	488.098694
7931.895131	1.526730	0.478342	1852.995117
7931.895998	1.518618	0.478342	3169.637207
7931.896983	1.476859	0.478342	4624.343262
7931.897922	1.436569	0.478342	5973.281250
7931.898820	1.398816	0.478342	7229.417969
7931.899750	1.084959	0.478342	8238.429687
7931.900699	0.132004	0.478342	8363.702148
7931.901627	0.094955	0.478342	8451.820312
7931.902500	0.095017	0.478342	8534.770508
7931.903416	0.095024	0.478342	8621.812500
7931.904371	0.095013	0.478342	8712.550781
7931.905291	0.095028	0.478342	8799.976562
7931.906161	0.095013	0.478342	8882.638672
7931.907129	0.095010	0.478342	8974.608398
7931.908058	0.094958	0.478342	9062.825195
7931.908964	0.095017	0.478342	9148.911133
7932.927968	1.060968	0.474141	477.435608
7932.928843	1.525309	0.474141	1812.080811
7932.929781	1.518252	0.474141	3236.201172
7932.930702	1.476680	0.474141	4596.223145
7932.931641	1.436111	0.474141	5944.731445
7932.932537	1.399094	0.474141	7198.319824
7932.933454	1.092125	0.474141	8199.798828
7932.934414	0.134832	0.474141	8329.237305
7932.935329	0.094867	0.474141	8416.041016
7932.936198	0.095065	0.474141	8498.652344
7932.937159	0.094969	0.474141	8589.917969
7932.938086	0.094915	0.474141	8677.903320
7932.939015	0.095039	0.474141	8766.194336
7932.939876	0.094991	0.474141	8847.982422
7932.940848	0.095024	0.474141	8940.345703
7932.941774	0.095035	0.474141	9028.348633
7932.942663	0.095017	0.474141	9112.818359
7933.913029	1.034963	0.537635	446.069214
7933.913898	1.522844	0.537635	1769.420898
7933.914961	1.513198	0.537635	3377.950684
7933.915980	1.468791	0.537635	4874.649414
7933.916879	1.430193	0.537635	6160.392578
7933.917843	1.390792	0.537635	7501.116211
7933.918901	0.665237	0.537635	8204.936523
7933.919825	0.098177	0.537635	8295.652344
7933.920698	0.094922	0.537635	8378.519531
7933.921682	0.095024	0.537635	8472.023437
7933.922694	0.095006	0.537635	8568.169922
7933.923576	0.095010	0.537635	8651.968750
7933.924433	0.095032	0.537635	8733.411133
7933.925497	0.095017	0.537635	8834.509766
7933.926431	0.094904	0.537635	8923.149414
7933.927306	0.094977	0.537635	9006.253906
7933.928270	0.095032	0.537635	9097.864258
